t	counts	wl0	bth	t0	t1	OD
0	4.34409618	524	13	30	330	OD1.txt
0.6	0					
1.2	4.34409618					
1.8	5.79212856					
2.4	2.89606428					
3	2.89606428					
3.6	5.79212856					
4.2	7.24016047					
4.8	7.24016047					
5.4	1.44803214					
6	5.79212856					
6.6	11.5842571					
7.2	2.89606428					
7.8	5.79212856					
8.4	2.89606428					
9	5.79212856					
9.6	2.89606428					
10.2	1.44803214					
10.8	11.5842571					
11.4	5.79212856					
12	1.44803214					
12.6	5.79212856					
13.2	4.34409618					
13.8	1.44803214					
14.4	2.89606428					
15	1.44803214					
15.6	1.44803214					
16.2	5.79212856					
16.8	5.79212856					
17.4	11.5842571					
18	1.44803214					
18.6	2.89606428					
19.2	5.79212856					
19.8	0					
20.4	0					
21	10.1362247					
21.6	7.24016047					
22.2	2.89606428					
22.8	11.5842571					
23.4	4.34409618					
24	2.89606428					
24.6	4.34409618					
25.2	2.89606428					
25.8	1.44803214					
26.4	4.34409618					
27	4.34409618					
27.6	2.89606428					
28.2	4.34409618					
28.8	5.79212856					
29.4	5.79212856					
30	874.611389					
30.6	965.837402					
31.2	1026.65479					
31.8	1143.94531					
32.4	1248.20361					
33	1236.61938					
33.6	1324.94934					
34.2	1268.47607					
34.8	1443.68799					
35.4	1385.76672					
36	1523.32971					
36.6	1505.95337					
37.2	1569.66687					
37.8	1576.90698					
38.4	1672.47705					
39	1710.12585					
39.6	1686.95728					
40.2	1757.91101					
40.8	1734.74243					
41.4	1811.48816					
42	1812.93628					
42.6	1891.12988					
43.2	1821.62439					
43.8	1915.74646					
44.4	1973.66772					
45	2028.69287					
45.6	2056.20557					
46.2	2141.6394					
46.8	2195.21655					
47.4	2127.15894					
48	2302.37109					
48.6	2326.98755					
49.2	2238.65747					
49.8	2245.89771					
50.4	2331.33179					
51	2479.03101					
51.6	2484.82324					
52.2	2532.60815					
52.8	2507.99146					
53.4	2529.71191					
54	2586.1853					
54.6	2612.24976					
55.2	2704.92383					
55.8	2725.19629					
56.4	2804.83813					
57	2809.18213					
57.6	2959.77759					
58.2	2978.60205					
58.8	2843.93506					
59.4	3111.82104					
60	3171.19019					
60.6	3053.89966					
61.2	3253.72803					
61.8	3216.07935					
62.4	3255.17603					
63	3279.79272					
63.6	3408.66748					
64.2	3308.75342					
64.8	3369.5708					
65.4	3392.73926					
66	3466.58887					
66.6	3520.16602					
67.2	3580.9834					
67.8	3608.49585					
68.4	3730.13086					
69	3817.0127					
69.6	3735.92261					
70.2	3940.09546					
70.8	3812.66846					
71.4	3879.27808					
72	4050.14575					
72.6	4074.76221					
73.2	4080.55444					
73.8	4058.83398					
74.4	4213.77295					
75	4249.97461					
75.6	4229.70166					
76.2	4316.5835					
76.8	4370.16113					
77.4	4378.84863					
78	4497.58789					
78.6	4706.10449					
79.2	4594.60547					
79.8	4850.90723					
80.4	4735.06494					
81	4653.9751					
81.6	4829.18701					
82.2	4723.48047					
82.8	4913.17285					
83.4	4850.90723					
84	5056.52783					
84.6	5143.40967					
85.2	5210.01953					
85.8	5150.6499					
86.4	5178.16309					
87	5286.76514					
87.6	5269.38867					
88.2	5464.87305					
88.8	5388.12744					
89.4	5311.38135					
90	5684.97412					
90.6	5616.9165					
91.2	5629.94873					
91.8	5599.54004					
92.4	5935.48389					
93	5750.13525					
93.6	5973.13232					
94.2	6049.87793					
94.8	5948.51563					
95.4	5863.08154					
96	6100.55908					
96.6	6177.30469					
97.2	6209.16162					
97.8	6203.36914					
98.4	6346.72461					
99	6400.30176					
99.6	6542.20898					
100.2	6448.08691					
100.8	6495.87158					
101.4	6545.10498					
102	6724.66113					
102.6	6694.25244					
103.2	6836.15918					
103.8	6873.80811					
104.4	6718.86865					
105	6753.62158					
105.6	6911.45752					
106.2	6673.97998					
106.8	7118.52588					
107.4	6973.72266					
108	6779.68652					
108.6	7215.54346					
109.2	7167.75928					
109.8	7260.43262					
110.4	7479.08545					
111	7570.31152					
111.6	7736.83545					
112.2	7777.38037					
112.8	7690.49854					
113.4	7542.79932					
114	7645.60938					
114.6	7910.59912					
115.2	7893.22266					
115.8	7799.10107					
116.4	8010.51367					
117	8091.60352					
117.6	8039.47412					
118.2	8006.16943					
118.8	8177.03711					
119.4	8305.91211					
120	8307.35938					
120.6	8263.91895					
121.2	8572.35059					
121.8	8453.61133					
122.4	8546.28516					
123	8436.23438					
123.6	8563.66211					
124.2	8649.0957					
124.8	8620.13574					
125.4	8901.05273					
126	8903.94922					
126.6	8675.16016					
127.2	8780.86621					
127.8	8879.33301					
128.4	9173.2832					
129	9271.75					
129.6	9320.98242					
130.2	9055.99316					
130.8	9102.3291					
131.4	9154.45898					
132	9315.19043					
132.6	9189.21094					
133.2	9129.84277					
133.8	9541.08398					
134.4	9364.42383					
135	9520.81055					
135.6	9578.73242					
136.2	9866.89063					
136.8	9790.14551					
137.4	9727.87988					
138	9785.80078					
138.6	9853.8584					
139.2	10095.6797					
139.8	10014.5898					
140.4	10100.0234					
141	10166.6328					
141.6	9862.54688					
142.2	10191.25					
142.8	10144.9131					
143.4	10398.3184					
144	10295.5078					
144.6	10398.3184					
145.2	10745.8457					
145.8	10357.7734					
146.4	10548.9141					
147	10650.2764					
147.6	10598.1465					
148.2	10616.9717					
148.8	10745.8457					
149.4	10563.3945					
150	10958.7061					
150.6	10517.0566					
151.2	10877.6162					
151.8	10751.6377					
152.4	10834.1758					
153	10797.9756					
153.6	11133.9189					
154.2	11196.1846					
154.8	11238.1777					
155.4	11146.9512					
156	11093.373					
156.6	11291.7549					
157.2	11298.9941					
157.8	11561.0879					
158.4	11410.4932					
159	11504.6152					
159.6	11494.4785					
160.2	11535.0244					
160.8	11620.457					
161.4	11691.4111					
162	11592.9453					
162.6	11649.418					
163.2	11813.0449					
163.8	11695.7549					
164.4	11895.584					
165	11697.2031					
165.6	11950.6084					
166.2	11789.8779					
166.8	12124.3721					
167.4	12106.9961					
168	12312.6172					
168.6	12131.6133					
169.2	12001.29					
169.8	11878.207					
170.4	12390.8105					
171	12312.6172					
171.6	12358.9531					
172.2	12421.2188					
172.8	12406.7383					
173.4	12396.6025					
174	12257.5918					
174.6	12606.5674					
175.2	12584.8467					
175.8	12787.5713					
176.4	12705.0332					
177	12687.6572					
177.6	12745.5781					
178.2	12752.8184					
178.8	12822.3242					
179.4	12887.4863					
180	12828.1162					
180.6	12896.1738					
181.2	12823.7715					
181.8	12777.4355					
182.4	13014.9121					
183	12928.0303					
183.6	12985.9512					
184.2	13161.1641					
184.8	13100.3467					
185.4	13111.9307					
186	13266.8701					
186.6	13239.3574					
187.2	13413.1211					
187.8	13143.7871					
188.4	13398.6406					
189	13243.7012					
189.6	13362.4404					
190.2	13572.4043					
190.8	13271.2148					
191.4	13471.042					
192	13565.165					
192.6	13434.8418					
193.2	13776.5771					
193.8	13786.7139					
194.4	13595.5732					
195	13546.3398					
195.6	13995.2305					
196.2	13908.3477					
196.8	13814.2266					
197.4	13673.7676					
198	14035.7754					
198.6	13931.5166					
199.2	14008.2617					
199.8	14137.1367					
200.4	13937.3086					
201	14261.668					
201.6	14160.3057					
202.2	14137.1367					
202.8	14142.9287					
203.4	14389.0947					
204	14225.4678					
204.6	14099.4883					
205.2	14374.6152					
205.8	14368.8223					
206.4	14520.8652					
207	14678.7012					
207.6	14113.9688					
208.2	14499.1455					
208.8	14391.9902					
209.4	14726.4863					
210	14599.0586					
210.6	14487.5605					
211.2	14551.2744					
211.8	14565.7549					
212.4	14768.4795					
213	14700.4219					
213.6	15007.4053					
214.2	14568.6504					
214.8	14916.1787					
215.4	14762.6875					
216	14940.7949					
216.6	14742.4141					
217.2	14826.4004					
217.8	14849.5693					
218.4	14771.375					
219	14929.2109					
219.6	14819.1602					
220.2	15047.9492					
220.8	14936.4512					
221.4	14810.4727					
222	15231.8486					
222.6	15075.4619					
223.2	15226.0576					
223.8	15538.832					
224.4	15308.5947					
225	15304.252					
225.6	15405.6133					
226.2	15378.1006					
226.8	15430.2305					
227.4	15396.9258					
228	15508.4238					
228.6	15272.3945					
229.2	15417.1973					
229.8	15478.0156					
230.4	15511.3203					
231	15411.4053					
231.6	15572.1367					
232.2	15579.377					
232.8	15479.4629					
233.4	15773.4131					
234	15806.7178					
234.6	15895.0488					
235.2	15394.0293					
235.8	15829.8867					
236.4	16064.4678					
237	15831.334					
237.6	15740.1084					
238.2	15763.2773					
238.8	16049.9873					
239.4	15548.9688					
240	15777.7568					
240.6	16145.5576					
241.2	15858.8477					
241.8	15957.3135					
242.4	15979.0342					
243	15782.1016					
243.6	15725.6279					
244.2	16036.9551					
244.8	16000.7549					
245.4	15916.7686					
246	16074.6035					
246.6	16197.6875					
247.2	16475.709					
247.8	16144.1104					
248.4	16002.2021					
249	16204.9268					
249.6	16015.2354					
250.2	16244.0244					
250.8	15999.3057					
251.4	16210.7197					
252	16436.6113					
252.6	16283.1211					
253.2	16481.502					
253.8	16223.751					
254.4	16477.1582					
255	16724.7715					
255.6	16523.4941					
256.2	16356.9707					
256.8	16443.8535					
257.4	16471.3652					
258	16504.6699					
258.6	16390.2754					
259.2	16202.0313					
259.8	16604.584					
260.4	16385.9316					
261	16587.207					
261.6	16797.1719					
262.2	16604.584					
262.8	16564.0391					
263.4	16688.5703					
264	16698.7051					
264.6	16915.9121					
265.2	16510.4629					
265.8	16668.2969					
266.4	16836.2695					
267	16646.5781					
267.6	17020.1699					
268.2	16661.0566					
268.8	17150.4922					
269.4	16823.2363					
270	16921.7012					
270.6	16765.3145					
271.2	16969.4883					
271.8	17144.7012					
272.4	17052.0254					
273	16831.9258					
273.6	17079.5371					
274.2	16805.8594					
274.8	16891.2949					
275.4	17180.9004					
276	17005.6875					
276.6	17212.7578					
277.2	16991.209					
277.8	17327.1523					
278.4	16873.918					
279	17191.0371					
279.6	17107.0508					
280.2	17059.2656					
280.8	17317.0156					
281.4	16963.6953					
282	16981.0723					
282.6	17036.0977					
283.2	17479.1953					
283.8	17288.0547					
284.4	17421.2734					
285	17170.7637					
285.6	16921.7012					
286.2	17335.8418					
286.8	17454.5781					
287.4	17566.0762					
288	17557.3887					
288.6	17260.543					
289.2	17466.1621					
289.8	17396.6582					
290.4	17613.8633					
291	17212.7578					
291.6	17314.1191					
292.2	17162.0762					
292.8	17558.8379					
293.4	17774.5938					
294	17164.9727					
294.6	17377.832					
295.2	17710.8809					
295.8	17416.9297					
296.4	17558.8379					
297	17567.5254					
297.6	18019.3125					
298.2	17755.7695					
298.8	17764.457					
299.4	18007.7285					
300	17545.8047					
300.6	17584.9023					
301.2	17829.6191					
301.8	17807.8984					
302.4	17718.1191					
303	17689.1582					
303.6	17553.0449					
304.2	17826.7227					
304.8	17525.5332					
305.4	17537.1172					
306	17622.5488					
306.6	17679.0234					
307.2	17920.8457					
307.8	17873.0605					
308.4	17654.4082					
309	17793.418					
309.6	18074.3379					
310.2	17516.8438					
310.8	18122.1211					
311.4	17721.0176					
312	18039.584					
312.6	17970.0781					
313.2	18041.0332					
313.8	17891.8848					
314.4	17946.9082					
315	18009.1738					
315.6	18043.9277					
316.2	17873.0605					
316.8	18117.7773					
317.4	17975.8691					
318	18145.291					
318.6	18087.3672					
319.2	17952.7012					
319.8	18087.3672					
320.4	18197.4199					
321	17961.3906					
321.6	18168.459					
322.2	18158.3223					
322.8	18078.6816					
323.4	18206.1074					
324	18113.4336					
324.6	18029.4473					
325.2	18175.6992					
325.8	18096.0566					
326.4	18206.1074					
327	18071.4395					
327.6	18515.9863					
328.2	18169.9082					
328.8	18507.2969					
329.4	18230.7246					
330	16756.627					
330.6	16833.373					
331.2	16663.9551					
331.8	16480.0527					
332.4	16364.2109					
333	15850.1592					
333.6	15951.5215					
334.2	15698.1162					
334.8	15617.0264					
335.4	15431.6777					
336	15347.6924					
336.6	15118.9033					
337.2	14803.2324					
337.8	14801.7842					
338.4	14599.0586					
339	14594.7158					
339.6	14006.8145					
340.2	14180.5781					
340.8	14077.7686					
341.4	14071.9766					
342	14056.0469					
342.6	13611.502					
343.2	13692.5908					
343.8	13696.9355					
344.4	13485.5225					
345	13398.6406					
345.6	13479.7305					
346.2	13319					
346.8	12965.6797					
347.4	12996.0879					
348	12741.2344					
348.6	12984.5039					
349.2	12787.5713					
349.8	12480.5889					
350.4	12369.0898					
351	12237.3193					
351.6	12256.1436					
352.2	12120.0283					
352.8	11967.9854					
353.4	11805.8057					
354	12018.666					
354.6	11781.1895					
355.2	11957.8496					
355.8	11889.791					
356.4	11726.1631					
357	11571.2246					
357.6	11252.6572					
358.2	11329.4033					
358.8	11553.8477					
359.4	11401.8047					
360	11191.8398					
360.6	11220.8008					
361.2	11188.9434					
361.8	10945.6748					
362.4	10984.7715					
363	10760.3262					
363.6	10829.8311					
364.2	10514.1611					
364.8	10831.2803					
365.4	10677.7891					
366	10761.7744					
366.6	10624.2119					
367.2	10108.7119					
367.8	10443.208					
368.4	10246.2754					
369	10305.6445					
369.6	10149.2578					
370.2	10172.4248					
370.8	10005.9023					
371.4	10142.0166					
372	10004.4531					
372.6	9997.21387					
373.2	9599.00488					
373.8	9691.67871					
374.4	9830.68945					
375	9766.97656					
375.6	9510.6748					
376.2	9832.1377					
376.8	9599.00488					
377.4	9604.79688					
378	9457.09766					
378.6	9629.41309					
379.2	9070.47363					
379.8	9160.25098					
380.4	9360.0791					
381	9316.63867					
381.6	9294.91797					
382.2	9051.64941					
382.8	8895.26074					
383.4	8977.79883					
384	8928.56543					
384.6	8998.07129					
385.2	9157.35547					
385.8	8791.00293					
386.4	8814.1709					
387	8780.86621					
387.6	8637.51074					
388.2	8653.44043					
388.8	8756.25					
389.4	8453.61133					
390	8595.51855					
390.6	8504.29199					
391.2	8514.42871					
391.8	8459.40332					
392.4	8358.04102					
393	8321.83984					
393.6	8514.42871					
394.2	8053.95459					
394.8	8178.48535					
395.4	8208.89355					
396	8242.19922					
396.6	7893.22266					
397.2	8255.23145					
397.8	8217.58203					
398.4	8020.64941					
399	7938.11182					
399.6	7958.38428					
400.2	7998.9292					
400.8	7619.54492					
401.4	7564.51953					
402	7851.22998					
402.6	7680.36182					
403.2	7560.17529					
403.8	7450.125					
404.4	7428.4043					
405	7713.66699					
405.6	7471.84521					
406.2	7583.34424					
406.8	7551.4873					
407.4	7563.07129					
408	7426.95654					
408.6	7421.16455					
409.2	7419.7168					
409.8	7269.12109					
410.4	7300.97754					
411	7154.72656					
411.6	7224.23193					
412.2	7309.66602					
412.8	7014.26709					
413.4	7064.94873					
414	7009.92334					
414.6	7143.14209					
415.2	7041.78027					
415.8	6833.26318					
416.4	7021.50781					
417	7069.29248					
417.6	7057.7085					
418.2	6742.0376					
418.8	6659.5					
419.4	6952.00244					
420	6663.84326					
420.6	6876.7041					
421.2	6663.84326					
421.8	6805.75098					
422.4	6965.03418					
423	6770.99805					
423.6	6676.87598					
424.2	6736.24561					
424.8	6537.86475					
425.4	6665.2915					
426	6598.68213					
426.6	6435.05469					
427.2	6595.78613					
427.8	6503.11182					
428.4	6465.46338					
429	6314.86816					
429.6	6549.44922					
430.2	6366.99707					
430.8	6420.57422					
431.4	6251.1543					
432	6251.1543					
432.6	6374.2373					
433.2	6340.93262					
433.8	6410.43799					
434.4	6335.14014					
435	6174.40869					
435.6	6297.4917					
436.2	6159.92822					
436.8	5939.82764					
437.4	6154.13672					
438	6093.31885					
438.6	5886.25049					
439.2	6088.9751					
439.8	5934.03564					
440.4	5894.93896					
441	6161.37646					
441.6	6020.91748					
442.2	5834.12109					
442.8	5944.17139					
443.4	5850.0498					
444	5900.73096					
444.6	5923.89941					
445.2	5739.99902					
445.8	5658.90918					
446.4	5544.51465					
447	5868.87402					
447.6	5719.72705					
448.2	5692.21387					
448.8	5606.77979					
449.4	5742.89502					
450	5741.44727					
450.6	5719.72705					
451.2	5587.95605					
451.8	5590.85205					
452.4	5556.09912					
453	5417.08789					
453.6	5469.21729					
454.2	5515.5542					
454.8	5554.65137					
455.4	5508.31396					
456	5304.1416					
456.6	5398.26318					
457.2	5480.80127					
457.8	5567.68311					
458.4	5341.79053					
459	5456.18506					
459.6	5312.82959					
460.2	5302.69385					
460.8	5412.74414					
461.4	5331.6543					
462	5276.62891					
462.6	5201.33105					
463.2	5388.12744					
463.8	5207.12354					
464.4	5224.49951					
465	5252.01221					
465.6	5072.45654					
466.2	5082.59277					
466.8	5241.87598					
467.4	5178.16309					
468	5186.85059					
468.6	4971.09375					
469.2	5301.24561					
469.8	5060.87207					
470.4	5143.40967					
471	5156.44238					
471.6	5033.35938					
472.2	5186.85059					
472.8	5111.55322					
473.4	5107.20898					
474	4989.91846					
474.6	5115.89746					
475.2	4871.18018					
475.8	4848.01123					
476.4	4984.12646					
477	4859.5957					
477.6	4982.67822					
478.2	4791.53809					
478.8	4868.28369					
479.4	4737.96094					
480	4664.11133					
480.6	4730.7207					
481.2	4740.85693					
481.8	4814.70654					
482.4	4940.68555					
483	4766.92139					
483.6	4685.83154					
484.2	4704.65625					
484.8	4787.19434					
485.4	4520.75635					
486	4777.05762					
486.6	4649.63086					
487.2	4632.25439					
487.8	4701.76025					
488.4	4574.3335					
489	4753.88965					
489.6	4574.3335					
490.2	4574.3335					
490.8	4687.27979					
491.4	4558.40479					
492	4556.95703					
492.6	4499.03564					
493.2	4464.28271					
493.8	4481.65918					
494.4	4438.21826					
495	4375.95313					
495.6	4538.13281					
496.2	4465.73096					
496.8	4486.00342					
497.4	4365.81689					
498	4325.27197					
498.6	4499.03564					
499.2	4400.56934					
499.8	4436.77002					
500.4	4338.30371					
501	4459.93896					
501.6	4526.54834					
502.2	4312.23975					
502.8	4222.46143					
503.4	4260.11035					
504	4287.62305					
504.6	4232.59766					
505.2	4273.14258					
505.8	4267.35059					
506.4	4257.21436					
507	4249.97461					
507.6	4190.60498					
508.2	4226.80566					
508.8	4210.87695					
509.4	4241.28613					
510	4064.62622					
510.6	4012.49683					
511.2	4171.78027					
511.8	4108.06689					
512.4	4212.3252					
513	4095.03467					
513.6	4145.71582					
514.2	4113.85938					
514.8	3987.88037					
515.4	4074.76221					
516	3992.22437					
516.6	3954.57568					
517.2	3947.33545					
517.8	3977.74414					
518.4	4068.97021					
519	4108.06689					
519.6	4096.48291					
520.2	3986.43237					
520.8	4038.56152					
521.4	3935.75122					
522	3844.52515					
522.6	3864.79761					
523.2	3759.09131					
523.8	4031.32129					
524.4	3945.88721					
525	3918.375					
525.6	3725.78662					
526.2	3932.85522					
526.8	3890.8623					
527.4	3848.86938					
528	3900.99854					
528.6	3895.2063					
529.2	3789.5					
529.8	3727.23462					
530.4	3607.04785					
531	3773.57178					
531.6	3864.79761					
532.2	3686.6897					
532.8	3793.84424					
533.4	3689.58594					
534	3712.75415					
534.6	3754.74707					
535.2	3612.84009					
535.8	3649.04077					
536.4	3549.12671					
537	3531.75024					
537.6	3747.50708					
538.2	3634.56055					
538.8	3637.45654					
539.4	3689.58594					
540	3670.76123					
540.6	3565.05493					
541.2	3625.87256					
541.8	3605.6001					
542.4	3630.21631					
543	3611.39185					
543.6	3659.177					
544.2	3596.91162					
544.8	3651.93677					
545.4	3483.96509					
546	3533.19824					
546.6	3456.45264					
547.2	3530.30225					
547.8	3520.16602					
548.4	3386.94702					
549	3605.6001					
549.6	3614.28809					
550.2	3401.42725					
550.8	3573.74316					
551.4	3414.45972					
552	3447.7644					
552.6	3372.4668					
553.2	3337.71387					
553.8	3424.59595					
554.4	3395.63501					
555	3402.87549					
555.6	3343.5061					
556.2	3330.47388					
556.8	3405.77148					
557.4	3553.4707					
558	3455.00464					
558.6	3323.23364					
559.2	3207.39087					
559.8	3274.00049					
560.4	3323.23364					
561	3234.90356					
561.6	3291.37695					
562.2	3304.40918					
562.8	3298.61719					
563.4	3314.54541					
564	3349.29834					
564.6	3291.37695					
565.2	3236.35181					
565.8	3305.85742					
566.4	3232.00757					
567	3278.34473					
567.6	3224.76758					
568.2	3292.82495					
568.8	3227.66333					
569.4	3211.73511					
570	3205.94287					
570.6	3232.00757					
571.2	3298.61719					
571.8	3159.6062					
572.4	3037.97119					
573	3110.37305					
573.6	3095.89258					
574.2	3279.79272					
574.8	3075.62036					
575.4	3136.4375					
576	3117.61328					
576.6	3051.00366					
577.2	3087.20435					
577.8	3078.51611					
578.4	2991.63428					
579	3159.6062					
579.6	3046.65942					
580.2	3106.02881					
580.8	3017.69873					
581.4	3127.74927					
582	3016.25073					
582.6	2997.42627					
583.2	3158.15796					
583.8	3022.04297					
584.4	3046.65942					
585	3039.41919					
585.6	2988.73828					
586.2	3101.68457					
586.8	3161.0542					
587.4	3013.35498					
588	3026.38696					
588.6	2977.15381					
589.2	2922.12891					
589.8	2925.0249					
590.4	2951.08936					
591	2907.64844					
591.6	2927.9209					
592.2	2717.95605					
592.8	2961.22559					
593.4	2945.29736					
594	2830.90259					
594.6	2958.32959					
595.2	2846.83105					
595.8	2932.26489					
596.4	2949.64136					
597	2700.57983					
597.6	2836.69482					
598.2	2891.71997					
598.8	2772.98145					
599.4	2839.59106					
600	2917.78467					
600.6	2823.66235					
601.2	2642.65845					
601.8	2883.03198					
602.4	2841.03906					
603	2804.83813					
603.6	2871.44751					
604.2	2914.88843					
604.8	2649.89868					
605.4	2900.4082					
606	2735.33276					
606.6	2835.24683					
607.2	2761.39697					
607.8	2736.78076					
608.4	2742.57275					
609	2775.87769					
609.6	2657.13867					
610.2	2729.54053					
610.8	2752.70898					
611.4	2803.38989					
612	2662.93091					
612.6	2635.41821					
613.2	2578.94507					
613.8	2706.37207					
614.4	2665.82715					
615	2706.37207					
615.6	2641.21045					
616.2	2761.39697					
616.8	2632.52246					
617.4	2647.00269					
618	2713.6123					
618.6	2729.54053					
619.2	2599.21753					
619.8	2664.37915					
620.4	2706.37207					
621	2583.28931					
621.6	2602.11377					
622.2	2610.802					
622.8	2720.85229					
623.4	2578.94507					
624	2545.64038					
624.6	2528.26392					
625.2	2535.50415					
625.8	2589.08154					
626.4	2535.50415					
627	2616.59399					
627.6	2506.54346					
628.2	2481.927					
628.8	2510.88745					
629.4	2606.45776					
630	2557.22461					
630.6	2480.479					
631.2	2583.28931					
631.8	2555.77661					
632.4	2589.08154					
633	2507.99146					
633.6	2505.0957					
634.2	2594.87354					
634.8	2448.62231					
635.4	2507.99146					
636	2379.11694					
636.6	2437.03809					
637.2	2476.13477					
637.8	2545.64038					
638.4	2445.72607					
639	2483.37524					
639.6	2541.29639					
640.2	2412.42139					
640.8	2531.15991					
641.4	2471.79077					
642	2460.20654					
642.6	2383.46069					
643.2	2342.91577					
643.8	2477.58301					
644.4	2428.34985					
645	2470.34277					
645.6	2435.59009					
646.2	2490.61523					
646.8	2366.08447					
647.4	2473.23877					
648	2351.60425					
648.6	2377.6687					
649.2	2371.87671					
649.8	2334.22778					
650.4	2377.6687					
651	2299.47485					
651.6	2383.46069					
652.2	2355.94824					
652.8	2286.44263					
653.4	2382.0127					
654	2390.70093					
654.6	2358.84424					
655.2	2379.11694					
655.8	2405.18115					
656.4	2319.74731					
657	2366.08447					
657.6	2386.35693					
658.2	2410.97339					
658.8	2392.14893					
659.4	2263.27417					
660	2247.34595					
660.6	2328.43555					
661.2	2287.89063					
661.8	2345.81201					
662.4	2266.17017					
663	2312.50732					
663.6	2273.4104					
664.2	2237.20947					
664.8	2287.89063					
665.4	2237.20947					
666	2247.34595					
666.6	2231.41724					
667.2	2292.23486					
667.8	2154.67163					
668.4	2363.18823					
669	2166.2561					
669.6	2271.9624					
670.2	2183.63232					
670.8	2305.26709					
671.4	2270.5144					
672	2251.68994					
672.6	2159.01587					
673.2	2156.11987					
673.8	2260.37817					
674.4	2169.15186					
675	2203.90479					
675.6	2244.44971					
676.2	2238.65747					
676.8	2167.7041					
677.4	2164.80811					
678	2222.72925					
678.6	2117.02295					
679.2	2111.23071					
679.8	2182.18433					
680.4	2150.32764					
681	2228.52148					
681.6	2063.44556					
682.2	2216.93701					
682.8	2067.78979					
683.4	2132.95117					
684	2180.73633					
684.6	2086.61426					
685.2	1993.94019					
685.8	2079.37427					
686.4	2160.46387					
687	2151.77563					
687.6	2077.92603					
688.2	2066.3418					
688.8	2114.12695					
689.4	2156.11987					
690	2001.18042					
690.6	2160.46387					
691.2	2089.51025					
691.8	2102.54272					
692.4	1927.33069					
693	2088.06226					
693.6	2024.34888					
694.2	1985.25195					
694.8	2035.93311					
695.4	2047.51733					
696	2030.14099					
696.6	2008.42053					
697.2	2037.3811					
697.8	2067.78979					
698.4	1978.01184					
699	2011.31665					
699.6	2006.97241					
700.2	1937.46692					
700.8	2008.42053					
701.4	1938.91504					
702	2099.64648					
702.6	1922.98657					
703.2	2063.44556					
703.8	1934.5708					
704.4	2086.61426					
705	1957.73938					
705.6	1993.94019					
706.2	1904.16223					
706.8	1911.40234					
707.4	1941.81104					
708	1918.64258					
708.6	1909.95422					
709.2	1954.84326					
709.8	1989.59607					
710.4	2031.58899					
711	1886.78589					
711.6	1996.83618					
712.2	1892.57788					
712.8	1912.85034					
713.4	1996.83618					
714	1972.2196					
714.6	1928.77881					
715.2	1886.78589					
715.8	1878.09753					
716.4	1940.36304					
717	1909.95422					
717.6	1950.49927					
718.2	1846.24084					
718.8	1895.474					
719.4	1940.36304					
720	1886.78589					
720.6	1799.90393					
721.2	1863.61731					
721.8	1989.59607					
722.4	1901.26611					
723	1849.13696					
723.6	1789.7677					
724.2	1911.40234					
724.8	1912.85034					
725.4	1846.24084					
726	1865.06543					
726.6	1797.00781					
727.2	1867.9613					
727.8	1885.33777					
728.4	1852.03308					
729	1828.8645					
729.6	1852.03308					
730.2	1956.29138					
730.8	1854.9292					
731.4	1866.51331					
732	1947.60315					
732.6	1817.28027					
733.2	1746.32666					
733.8	1870.85742					
734.4	1818.72827					
735	1778.18347					
735.6	1705.78186					
736.2	1747.77478					
736.8	1786.87158					
737.4	1810.04016					
738	1821.62439					
738.6	1747.77478					
739.2	1744.87866					
739.8	1828.8645					
740.4	1757.91101					
741	1733.29443					
741.6	1788.31958					
742.2	1747.77478					
742.8	1778.18347					
743.4	1728.95032					
744	1778.18347					
744.6	1752.11877					
745.2	1718.81409					
745.8	1789.7677					
746.4	1695.64563					
747	1812.93628					
747.6	1659.4447					
748.2	1786.87158					
748.8	1669.58093					
749.4	1749.22278					
750	1656.54871					
750.6	1715.91809					
751.2	1726.05432					
751.8	1724.6062					
752.4	1781.07947					
753	1766.59912					
753.6	1756.46289					
754.2	1681.16528					
754.8	1740.53455					
755.4	1718.81409					
756	1692.74951					
756.6	1643.51648					
757.2	1631.93225					
757.8	1653.65271					
758.4	1613.10767					
759	1720.26208					
759.6	1637.72424					
760.2	1736.19055					
760.8	1582.69897					
761.4	1634.82813					
762	1662.34082					
762.6	1610.21167					
763.2	1666.68494					
763.8	1701.43774					
764.4	1647.86047					
765	1610.21167					
765.6	1678.26917					
766.2	1594.28333					
766.8	1697.09363					
767.4	1713.02197					
768	1618.8999					
768.6	1630.48413					
769.2	1697.09363					
769.8	1647.86047					
770.4	1562.42664					
771	1616.00378					
771.6	1591.38733					
772.2	1549.39429					
772.8	1656.54871					
773.4	1608.76367					
774	1459.61633					
774.6	1585.59509					
775.2	1546.49829					
775.8	1694.19751					
776.4	1524.77783					
777	1563.87463					
777.6	1663.78894					
778.2	1666.68494					
778.8	1616.00378					
779.4	1617.45178					
780	1546.49829					
780.6	1576.90698					
781.2	1579.8031					
781.8	1605.86755					
782.4	1589.93933					
783	1468.30457					
783.6	1565.32263					
784.2	1562.42664					
784.8	1574.01086					
785.4	1589.93933					
786	1555.18652					
786.6	1605.86755					
787.2	1490.02502					
787.8	1589.93933					
788.4	1559.53064					
789	1579.8031					
789.6	1516.0896					
790.2	1501.60925					
790.8	1572.56287					
791.4	1597.17944					
792	1482.78491					
792.6	1537.81018					
793.2	1466.85645					
793.8	1516.0896					
794.4	1469.75256					
795	1537.81018					
795.6	1453.82422					
796.2	1479.88879					
796.8	1520.43372					
797.4	1463.96045					
798	1475.54468					
798.6	1440.79199					
799.2	1552.29041					
799.8	1494.36914					
800.4	1450.92822					
801	1498.71313					
801.6	1523.32971					
802.2	1443.68799					
802.8	1458.16833					
803.4	1445.13599					
804	1500.16125					
804.6	1453.82422					
805.2	1487.12891					
805.8	1481.33679					
806.4	1426.31165					
807	1450.92822					
807.6	1440.79199					
808.2	1410.3833					
808.8	1463.96045					
809.4	1440.79199					
810	1436.44775					
810.6	1560.97852					
811.2	1395.90295					
811.8	1530.56982					
812.4	1429.20764					
813	1434.99976					
813.6	1497.26514					
814.2	1439.34387					
814.8	1481.33679					
815.4	1381.42261					
816	1437.89587					
816.6	1377.07849					
817.2	1416.17542					
817.8	1414.72729					
818.4	1423.41553					
819	1408.9353					
819.6	1424.86353					
820.2	1413.2793					
820.8	1382.87061					
821.4	1468.30457					
822	1407.48718					
822.6	1385.76672					
823.2	1408.9353					
823.8	1445.13599					
824.4	1424.86353					
825	1417.62341					
825.6	1332.18958					
826.2	1413.2793					
826.8	1379.97461					
827.4	1366.94226					
828	1324.94934					
828.6	1432.10376					
829.2	1388.66284					
829.8	1282.95642					
830.4	1426.31165					
831	1424.86353					
831.6	1401.69495					
832.2	1303.22888					
832.8	1355.35803					
833.4	1407.48718					
834	1413.2793					
834.6	1365.49426					
835.2	1374.1825					
835.8	1371.28638					
836.4	1382.87061					
837	1281.50842					
837.6	1364.04626					
838.2	1304.677					
838.8	1323.50134					
839.4	1332.18958					
840	1319.15723					
840.6	1336.53369					
841.2	1356.80615					
841.8	1311.91711					
842.4	1351.01392					
843	1203.3147					
843.6	1290.19653					
844.2	1346.66992					
844.8	1229.37927					
845.4	1322.05334					
846	1398.79907					
846.6	1355.35803					
847.2	1349.5658					
847.8	1365.49426					
848.4	1282.95642					
849	1275.71619					
849.6	1232.27527					
850.2	1298.88477					
850.8	1243.8595					
851.4	1306.12488					
852	1242.41162					
852.6	1277.16431					
853.2	1307.57288					
853.8	1298.88477					
854.4	1311.91711					
855	1316.26123					
855.6	1311.91711					
856.2	1301.78088					
856.8	1307.57288					
857.4	1280.06042					
858	1167.11389					
858.6	1268.47607					
859.2	1322.05334					
859.8	1185.93835					
860.4	1278.6123					
861	1282.95642					
861.6	1165.66589					
862.2	1268.47607					
862.8	1242.41162					
863.4	1239.5155					
864	1178.69812					
864.6	1180.14612					
865.2	1236.61938					
865.8	1317.70911					
866.4	1242.41162					
867	1233.72327					
867.6	1219.24304					
868.2	1235.17139					
868.8	1297.43677					
869.4	1191.73035					
870	1264.13196					
870.6	1262.68408					
871.2	1236.61938					
871.8	1177.25012					
872.4	1152.63354					
873	1294.54077					
873.6	1177.25012					
874.2	1138.1532					
874.8	1220.69104					
875.4	1255.44373					
876	1240.9635					
876.6	1253.99573					
877.2	1245.30762					
877.8	1155.52966					
878.4	1219.24304					
879	1193.17847					
879.6	1142.49731					
880.2	1253.99573					
880.8	1106.29651					
881.4	1132.36108					
882	1210.55493					
882.6	1219.24304					
883.2	1229.37927					
883.8	1239.5155					
884.4	1106.29651					
885	1275.71619					
885.6	1184.49023					
886.2	1125.12097					
886.8	1204.7627					
887.4	1148.28943					
888	1190.28235					
888.6	1142.49731					
889.2	1229.37927					
889.8	1181.59412					
890.4	1116.43274					
891	1168.56189					
891.6	1148.28943					
892.2	1184.49023					
892.8	1126.56885					
893.4	1156.97766					
894	1032.44678					
894.6	1129.46497					
895.2	1196.07446					
895.8	1148.28943					
896.4	1190.28235					
897	1139.6012					
897.6	1128.01697					
898.2	1198.97058					
898.8	1068.64771					
899.4	1129.46497					
900	1107.74451					
900.6	1151.18555					
901.2	1120.77686					
901.8	1109.1925					
902.4	1187.38635					
903	1181.59412					
903.6	1128.01697					
904.2	1075.88782					
904.8	1068.64771					
905.4	1159.87366					
906	1148.28943					
906.6	1061.40759					
907.2	1103.40051					
907.8	1017.96655					
908.4	1104.84851					
909	1116.43274					
909.6	1154.08154					
910.2	1113.53674					
910.8	1087.47205					
911.4	1096.16028					
912	1080.23193					
912.6	1114.98474					
913.2	1090.36816					
913.8	1109.1925					
914.4	1081.68005					
915	1022.31067					
915.6	1117.88074					
916.2	1119.32874					
916.8	1055.61536					
917.4	1059.95947					
918	1057.06348					
918.6	1044.03113					
919.2	1114.98474					
919.8	1083.12805					
920.4	1151.18555					
921	1080.23193					
921.6	1104.84851					
922.2	1129.46497					
922.8	1090.36816					
923.4	1036.79102					
924	1038.23901					
924.6	1049.82324					
925.2	975.973572					
925.8	1059.95947					
926.4	1064.30359					
927	1068.64771					
927.6	1088.92017					
928.2	994.798035					
928.8	1090.36816					
929.4	1061.40759					
930	1033.8949					
930.6	1099.0564					
931.2	1033.8949					
931.8	1051.27136					
932.4	1036.79102					
933	1151.18555					
933.6	1145.39343					
934.2	1002.03815					
934.8	1070.0957					
935.4	1070.0957					
936	990.453979					
936.6	1086.02405					
937.2	1041.13513					
937.8	1065.75159					
938.4	1020.86261					
939	1036.79102					
939.6	1101.95239					
940.2	1041.13513					
940.8	1023.75867					
941.4	1113.53674					
942	1041.13513					
942.6	1032.44678					
943.2	1072.99182					
943.8	1019.41455					
944.4	1070.0957					
945	951.357056					
945.6	1045.47913					
946.2	1007.83032					
946.8	1009.27838					
947.4	990.453979					
948	1055.61536					
948.6	1038.23901					
949.2	1032.44678					
949.8	1045.47913					
950.4	1049.82324					
951	1017.96655					
951.6	987.557861					
952.2	1006.38232					
952.8	1051.27136					
953.4	1059.95947					
954	1036.79102					
954.6	910.812195					
955.2	1071.54382					
955.8	944.116882					
956.4	1049.82324					
957	1010.72638					
957.6	960.045227					
958.2	1000.59021					
958.8	920.948425					
959.4	971.629517					
960	962.941345					
960.6	949.908997					
961.2	893.435791					
961.8	1016.51855					
962.4	986.109802					
963	1028.10278					
963.6	967.2854					
964.2	977.421631					
964.8	1025.20667					
965.4	1009.27838					
966	933.980652					
966.6	948.46106					
967.2	944.116882					
967.8	991.901978					
968.4	1000.59021					
969	967.2854					
969.6	987.557861					
970.2	1002.03815					
970.8	933.980652					
971.4	1029.5509					
972	928.188538					
972.6	975.973572					
973.2	932.532715					
973.8	962.941345					
974.4	975.973572					
975	947.013					
975.6	970.181519					
976.2	962.941345					
976.8	873.16333					
977.4	912.260193					
978	905.020081					
978.6	906.46814					
979.2	965.837402					
979.8	960.045227					
980.4	965.837402					
981	993.349976					
981.6	954.253174					
982.2	909.364136					
982.8	920.948425					
983.4	990.453979					
984	907.916077					
984.6	974.525635					
985.2	965.837402					
985.8	973.077576					
986.4	909.364136					
987	955.701172					
987.6	928.188538					
988.2	868.819275					
988.8	915.156311					
989.4	916.604309					
990	941.220886					
990.6	931.084656					
991.2	909.364136					
991.8	877.507446					
992.4	893.435791					
993	948.46106					
993.6	984.661804					
994.2	964.389404					
994.8	955.701172					
995.4	920.948425					
996	941.220886					
996.6	909.364136					
997.2	915.156311					
997.8	878.955505					
998.4	915.156311					
999	896.331848					
999.6	913.708252					
1000.2	844.202698					
1000.8	884.74762					
1001.4	847.098755					
1002	871.715332					
1002.6	858.683044					
1003.2	878.955505					
1003.8	919.500366					
1004.4	899.227905					
1005	925.29248					
1005.6	939.772827					
1006.2	918.052307					
1006.8	822.482178					
1007.4	884.74762					
1008	838.410522					
1008.6	849.994812					
1009.2	906.46814					
1009.8	860.131042					
1010.4	831.17041					
1011	899.227905					
1011.6	905.020081					
1012.2	877.507446					
1012.8	909.364136					
1013.4	935.428711					
1014	865.923157					
1014.6	923.844482					
1015.2	876.059387					
1015.8	889.091736					
1016.4	860.131042					
1017	887.643677					
1017.6	941.220886					
1018.2	863.027161					
1018.8	816.690125					
1019.4	829.722351					
1020	870.267273					
1020.6	826.826355					
1021.2	887.643677					
1021.8	896.331848					
1022.4	858.683044					
1023	800.76178					
1023.6	923.844482					
1024.2	805.105835					
1024.8	841.306641					
1025.4	860.131042					
1026	880.403503					
1026.6	849.994812					
1027.2	876.059387					
1027.8	863.027161					
1028.4	954.253174					
1029	787.729431					
1029.6	845.650757					
1030.2	808.001892					
1030.8	768.90509					
1031.4	828.274353					
1032	813.794006					
1032.6	812.345947					
1033.2	897.779907					
1033.8	841.306641					
1034.4	789.17749					
1035	800.76178					
1035.6	828.274353					
1036.2	857.234985					
1036.8	809.449951					
1037.4	842.7547					
1038	808.001892					
1038.6	834.066467					
1039.2	806.553833					
1039.8	821.03418					
1040.4	854.338928					
1041	870.267273					
1041.6	813.794006					
1042.2	767.457031					
1042.8	849.994812					
1043.4	828.274353					
1044	849.994812					
1044.6	808.001892					
1045.2	825.378296					
1045.8	776.145203					
1046.4	792.073547					
1047	773.249146					
1047.6	845.650757					
1048.2	768.90509					
1048.8	751.528687					
1049.4	767.457031					
1050	776.145203					
1050.6	796.417603					
1051.2	784.833435					
1051.8	834.066467					
1052.4	786.281433					
1053	767.457031					
1053.6	834.066467					
1054.2	783.385376					
1054.8	770.353027					
1055.4	728.360107					
1056	838.410522					
1056.6	786.281433					
1057.2	771.801086					
1057.8	754.424683					
1058.4	790.625488					
1059	790.625488					
1059.6	790.625488					
1060.2	831.17041					
1060.8	790.625488					
1061.4	809.449951					
1062	784.833435					
1062.6	822.482178					
1063.2	803.657837					
1063.8	819.586182					
1064.4	768.90509					
1065	822.482178					
1065.6	744.288452					
1066.2	710.983765					
1066.8	750.080627					
1067.4	834.066467					
1068	797.865662					
1068.6	735.600281					
1069.2	697.951477					
1069.8	742.840515					
1070.4	702.295532					
1071	748.632568					
1071.6	773.249146					
1072.2	816.690125					
1072.8	779.04126					
1073.4	742.840515					
1074	747.18457					
1074.6	760.216858					
1075.2	790.625488					
1075.8	770.353027					
1076.4	687.815247					
1077	724.016052					
1077.6	822.482178					
1078.2	758.768799					
1078.8	718.223877					
1079.4	705.19165					
1080	832.618469					
1080.6	680.575073					
1081.2	781.937317					
1081.8	741.392456					
1082.4	757.320801					
1083	734.152283					
1083.6	731.256226					
1084.2	725.464111					
1084.8	745.736511					
1085.4	760.216858					
1086	758.768799					
1086.6	767.457031					
1087.2	808.001892					
1087.8	728.360107					
1088.4	752.976685					
1089	676.230957					
1089.6	692.159302					
1090.2	686.367188					
1090.8	705.19165					
1091.4	799.313721					
1092	744.288452					
1092.6	728.360107					
1093.2	737.04834					
1093.8	735.600281					
1094.4	696.503418					
1095	744.288452					
1095.6	767.457031					
1096.2	682.023132					
1096.8	724.016052					
1097.4	776.145203					
1098	700.847473					
1098.6	706.639648					
1099.2	692.159302					
1099.8	663.19873					
1100.4	752.976685					
1101	725.464111					
1101.6	725.464111					
1102.2	695.05542					
1102.8	728.360107					
1103.4	738.496338					
1104	641.47821					
1104.6	653.062439					
1105.2	783.385376					
1105.8	705.19165					
1106.4	721.119995					
1107	719.671936					
1107.6	729.808167					
1108.2	651.614441					
1108.8	728.360107					
1109.4	647.270386					
1110	706.639648					
1110.6	713.879822					
1111.2	702.295532					
1111.8	674.782898					
1112.4	686.367188					
1113	738.496338					
1113.6	712.431763					
1114.2	731.256226					
1114.8	752.976685					
1115.4	706.639648					
1116	699.399536					
1116.6	739.944397					
1117.2	637.134155					
1117.8	677.679016					
1118.4	658.854553					
1119	632.789978					
1119.6	742.840515					
1120.2	668.990784					
1120.8	699.399536					
1121.4	667.542786					
1122	644.374268					
1122.6	686.367188					
1123.2	716.775879					
1123.8	682.023132					
1124.4	634.238037					
1125	695.05542					
1125.6	648.718384					
1126.2	641.47821					
1126.8	709.535706					
1127.4	648.718384					
1128	744.288452					
1128.6	695.05542					
1129.2	679.127075					
1129.8	593.693176					
1130.4	653.062439					
1131	700.847473					
1131.6	680.575073					
1132.2	640.030212					
1132.8	655.958557					
1133.4	660.302612					
1134	658.854553					
1134.6	677.679016					
1135.2	708.087708					
1135.8	695.05542					
1136.4	644.374268					
1137	696.503418					
1137.6	608.173462					
1138.2	657.406616					
1138.8	702.295532					
1139.4	612.517578					
1140	622.653809					
1140.6	686.367188					
1141.2	651.614441					
1141.8	690.711304					
1142.4	666.094788					
1143	725.464111					
1143.6	631.342041					
1144.2	696.503418					
1144.8	673.334961					
1145.4	624.101807					
1146	663.19873					
1146.6	682.023132					
1147.2	680.575073					
1147.8	663.19873					
1148.4	651.614441					
1149	658.854553					
1149.6	696.503418					
1150.2	619.757751					
1150.8	638.582153					
1151.4	574.868713					
1152	657.406616					
1152.6	648.718384					
1153.2	658.854553					
1153.8	632.789978					
1154.4	671.886902					
1155	612.517578					
1155.6	593.693176					
1156.2	718.223877					
1156.8	642.926208					
1157.4	615.413635					
1158	632.789978					
1158.6	567.628601					
1159.2	658.854553					
1159.8	645.822327					
1160.4	648.718384					
1161	609.621521					
1161.6	613.965637					
1162.2	587.901062					
1162.8	651.614441					
1163.4	613.965637					
1164	589.34906					
1164.6	593.693176					
1165.2	661.750671					
1165.8	679.127075					
1166.4	690.711304					
1167	640.030212					
1167.6	648.718384					
1168.2	596.589233					
1168.8	670.438843					
1169.4	613.965637					
1170	598.037231					
1170.6	619.757751					
1171.2	657.406616					
1171.8	642.926208					
1172.4	567.628601					
1173	587.901062					
1173.6	602.381348					
1174.2	660.302612					
1174.8	612.517578					
1175.4	585.004944					
1176	642.926208					
1176.6	548.804138					
1177.2	615.413635					
1177.8	567.628601					
1178.4	571.972656					
1179	564.732483					
1179.6	611.069519					
1180.2	592.245117					
1180.8	622.653809					
1181.4	595.141174					
1182	606.725403					
1182.6	600.933289					
1183.2	596.589233					
1183.8	580.660828					
1184.4	567.628601					
1185	682.023132					
1185.6	644.374268					
1186.2	596.589233					
1186.8	590.797058					
1187.4	602.381348					
1188	580.660828					
1188.6	595.141174					
1189.2	628.445923					
1189.8	586.453003					
1190.4	632.789978					
1191	570.524658					
1191.6	569.076599					
1192.2	624.101807					
1192.8	653.062439					
1193.4	579.21283					
1194	590.797058					
1194.6	631.342041					
1195.2	592.245117					
1195.8	624.101807					
1196.4	625.549866					
1197	598.037231					
1197.6	602.381348					
1198.2	566.180542					
1198.8	593.693176					
1199.4	579.21283					
1200	586.453003					
1200.6	598.037231					
1201.2	658.854553					
1201.8	560.388428					
1202.4	560.388428					
1203	583.556946					
1203.6	612.517578					
1204.2	528.531738					
1204.8	571.972656					
1205.4	598.037231					
1206	582.108887					
1206.6	569.076599					
1207.2	625.549866					
1207.8	635.686096					
1208.4	612.517578					
1209	579.21283					
1209.6	624.101807					
1210.2	553.148254					
1210.8	571.972656					
1211.4	579.21283					
1212	553.148254					
1212.6	534.323853					
1213.2	571.972656					
1213.8	582.108887					
1214.4	589.34906					
1215	582.108887					
1215.6	563.284424					
1216.2	574.868713					
1216.8	609.621521					
1217.4	541.564026					
1218	543.012024					
1218.6	567.628601					
1219.2	553.148254					
1219.8	554.596252					
1220.4	580.660828					
1221	576.316772					
1221.6	592.245117					
1222.2	493.778931					
1222.8	538.667908					
1223.4	576.316772					
1224	582.108887					
1224.6	574.868713					
1225.2	563.284424					
1225.8	573.420715					
1226.4	547.356079					
1227	515.499451					
1227.6	579.21283					
1228.2	538.667908					
1228.8	564.732483					
1229.4	518.395508					
1230	548.804138					
1230.6	512.603333					
1231.2	548.804138					
1231.8	576.316772					
1232.4	512.603333					
1233	509.707275					
1233.6	535.771912					
1234.2	595.141174					
1234.8	570.524658					
1235.4	509.707275					
1236	543.012024					
1236.6	586.453003					
1237.2	579.21283					
1237.8	556.044312					
1238.4	501.019073					
1239	561.836487					
1239.6	574.868713					
1240.2	582.108887					
1240.8	524.187622					
1241.4	558.940369					
1242	554.596252					
1242.6	551.700256					
1243.2	609.621521					
1243.8	531.427734					
1244.4	528.531738					
1245	538.667908					
1245.6	579.21283					
1246.2	556.044312					
1246.8	540.115967					
1247.4	496.674988					
1248	531.427734					
1248.6	579.21283					
1249.2	541.564026					
1249.8	592.245117					
1250.4	550.252197					
1251	599.485291					
1251.6	563.284424					
1252.2	514.051392					
1252.8	540.115967					
1253.4	521.291504					
1254	550.252197					
1254.6	511.155334					
1255.2	514.051392					
1255.8	579.21283					
1256.4	551.700256					
1257	496.674988					
1257.6	569.076599					
1258.2	527.083679					
1258.8	532.875793					
1259.4	547.356079					
1260	598.037231					
1260.6	537.21991					
1261.2	490.882874					
1261.8	524.187622					
1262.4	564.732483					
1263	537.21991					
1263.6	553.148254					
1264.2	532.875793					
1264.8	489.434845					
1265.4	490.882874					
1266	474.954498					
1266.6	509.707275					
1267.2	560.388428					
1267.8	514.051392					
1268.4	564.732483					
1269	561.836487					
1269.6	527.083679					
1270.2	493.778931					
1270.8	529.979736					
1271.4	503.915161					
1272	551.700256					
1272.6	518.395508					
1273.2	527.083679					
1273.8	485.090759					
1274.4	577.764832					
1275	531.427734					
1275.6	529.979736					
1276.2	531.427734					
1276.8	524.187622					
1277.4	540.115967					
1278	479.298615					
1278.6	563.284424					
1279.2	516.947449					
1279.8	515.499451					
1280.4	454.682068					
1281	505.36319					
1281.6	508.259277					
1282.2	490.882874					
1282.8	496.674988					
1283.4	535.771912					
1284	503.915161					
1284.6	515.499451					
1285.2	485.090759					
1285.8	474.954498					
1286.4	483.6427					
1287	503.915161					
1287.6	482.194702					
1288.2	508.259277					
1288.8	482.194702					
1289.4	463.37027					
1290	482.194702					
1290.6	477.850586					
1291.2	503.915161					
1291.8	482.194702					
1292.4	509.707275					
1293	529.979736					
1293.6	508.259277					
1294.2	512.603333					
1294.8	445.993866					
1295.4	496.674988					
1296	463.37027					
1296.6	499.571075					
1297.2	506.811218					
1297.8	467.714355					
1298.4	487.986786					
1299	516.947449					
1299.6	469.162415					
1300.2	487.986786					
1300.8	486.538788					
1301.4	482.194702					
1302	503.915161					
1302.6	418.481293					
1303.2	450.337982					
1303.8	515.499451					
1304.4	485.090759					
1305	502.467133					
1305.6	496.674988					
1306.2	473.5065					
1306.8	470.610443					
1307.4	434.409637					
1308	467.714355					
1308.6	498.123047					
1309.2	501.019073					
1309.8	427.169464					
1310.4	401.104889					
1311	450.337982					
1311.6	516.947449					
1312.2	473.5065					
1312.8	438.753723					
1313.4	450.337982					
1314	432.961578					
1314.6	464.818298					
1315.2	434.409637					
1315.8	486.538788					
1316.4	501.019073					
1317	434.409637					
1317.6	428.617493					
1318.2	432.961578					
1318.8	492.330902					
1319.4	493.778931					
1320	470.610443					
1320.6	463.37027					
1321.2	511.155334					
1321.8	435.857666					
1322.4	437.305695					
1323	489.434845					
1323.6	421.37735					
1324.2	501.019073					
1324.8	463.37027					
1325.4	495.22699					
1326	392.416718					
1326.6	470.610443					
1327.2	493.778931					
1327.8	459.026154					
1328.4	474.954498					
1329	454.682068					
1329.6	450.337982					
1330.2	444.545868					
1330.8	406.897003					
1331.4	466.266357					
1332	443.097809					
1332.6	444.545868					
1333.2	454.682068					
1333.8	466.266357					
1334.4	460.474213					
1335	474.954498					
1335.6	469.162415					
1336.2	448.889954					
1336.8	503.915161					
1337.4	443.097809					
1338	461.922241					
1338.6	438.753723					
1339.2	431.51358					
1339.8	453.23407					
1340.4	443.097809					
1341	432.961578					
1341.6	431.51358					
1342.2	421.37735					
1342.8	473.5065					
1343.4	428.617493					
1344	419.929291					
1344.6	451.786011					
1345.2	482.194702					
1345.8	450.337982					
1346.4	447.441925					
1347	435.857666					
1347.6	448.889954					
1348.2	408.345062					
1348.8	454.682068					
1349.4	431.51358					
1350	460.474213					
1350.6	466.266357					
1351.2	448.889954					
1351.8	441.64978					
1352.4	428.617493					
1353	456.130096					
1353.6	404.000946					
1354.2	419.929291					
1354.8	427.169464					
1355.4	389.52063					
1356	406.897003					
1356.6	430.065521					
1357.2	393.864716					
1357.8	417.033234					
1358.4	424.273407					
1359	435.857666					
1359.6	444.545868					
1360.2	469.162415					
1360.8	467.714355					
1361.4	453.23407					
1362	425.721436					
1362.6	412.689148					
1363.2	438.753723					
1363.8	470.610443					
1364.4	435.857666					
1365	393.864716					
1365.6	431.51358					
1366.2	422.825378					
1366.8	428.617493					
1367.4	444.545868					
1368	421.37735					
1368.6	457.578156					
1369.2	454.682068					
1369.8	415.585205					
1370.4	445.993866					
1371	480.746643					
1371.6	461.922241					
1372.2	457.578156					
1372.8	457.578156					
1373.4	370.696228					
1374	440.201752					
1374.6	408.345062					
1375.2	448.889954					
1375.8	414.137177					
1376.4	434.409637					
1377	408.345062					
1377.6	427.169464					
1378.2	411.241089					
1378.8	421.37735					
1379.4	343.183594					
1380	412.689148					
1380.6	389.52063					
1381.2	434.409637					
1381.8	492.330902					
1382.4	412.689148					
1383	367.80014					
1383.6	402.552917					
1384.2	430.065521					
1384.8	386.624573					
1385.4	447.441925					
1386	408.345062					
1386.6	417.033234					
1387.2	395.312744					
1387.8	409.793091					
1388.4	402.552917					
1389	414.137177					
1389.6	392.416718					
1390.2	408.345062					
1390.8	385.176514					
1391.4	362.008026					
1392	380.832428					
1392.6	411.241089					
1393.2	417.033234					
1393.8	406.897003					
1394.4	435.857666					
1395	422.825378					
1395.6	456.130096					
1396.2	428.617493					
1396.8	431.51358					
1397.4	383.728516					
1398	385.176514					
1398.6	437.305695					
1399.2	395.312744					
1399.8	418.481293					
1400.4	408.345062					
1401	348.975739					
1401.6	373.592285					
1402.2	422.825378					
1402.8	438.753723					
1403.4	386.624573					
1404	390.968658					
1404.6	425.721436					
1405.2	396.760803					
1405.8	383.728516					
1406.4	424.273407					
1407	385.176514					
1407.6	401.104889					
1408.2	402.552917					
1408.8	399.65686					
1409.4	408.345062					
1410	369.248169					
1410.6	392.416718					
1411.2	460.474213					
1411.8	414.137177					
1412.4	376.488342					
1413	421.37735					
1413.6	383.728516					
1414.2	412.689148					
1414.8	417.033234					
1415.4	375.040314					
1416	386.624573					
1416.6	367.80014					
1417.2	380.832428					
1417.8	405.449005					
1418.4	395.312744					
1419	432.961578					
1419.6	372.144226					
1420.2	369.248169					
1420.8	351.871796					
1421.4	440.201752					
1422	398.208801					
1422.6	392.416718					
1423.2	363.456055					
1423.8	375.040314					
1424.4	360.559998					
1425	372.144226					
1425.6	363.456055					
1426.2	366.352112					
1426.8	392.416718					
1427.4	363.456055					
1428	406.897003					
1428.6	404.000946					
1429.2	347.52771					
1429.8	366.352112					
1430.4	346.079651					
1431	354.767853					
1431.6	369.248169					
1432.2	354.767853					
1432.8	366.352112					
1433.4	398.208801					
1434	395.312744					
1434.6	411.241089					
1435.2	411.241089					
1435.8	343.183594					
1436.4	389.52063					
1437	377.936371					
1437.6	396.760803					
1438.2	406.897003					
1438.8	356.215881					
1439.4	379.384399					
1440	372.144226					
1440.6	350.423737					
1441.2	380.832428					
1441.8	367.80014					
1442.4	392.416718					
1443	359.111938					
1443.6	370.696228					
1444.2	328.703308					
1444.8	404.000946					
1445.4	398.208801					
1446	396.760803					
1446.6	401.104889					
1447.2	388.072601					
1447.8	367.80014					
1448.4	360.559998					
1449	364.904083					
1449.6	376.488342					
1450.2	369.248169					
1450.8	404.000946					
1451.4	357.66394					
1452	375.040314					
1452.6	389.52063					
1453.2	354.767853					
1453.8	372.144226					
1454.4	408.345062					
1455	351.871796					
1455.6	380.832428					
1456.2	321.463104					
1456.8	363.456055					
1457.4	385.176514					
1458	357.66394					
1458.6	385.176514					
1459.2	333.047394					
1459.8	377.936371					
1460.4	362.008026					
1461	354.767853					
1461.6	314.222961					
1462.2	347.52771					
1462.8	327.255249					
1463.4	388.072601					
1464	363.456055					
1464.6	331.599365					
1465.2	338.839508					
1465.8	376.488342					
1466.4	328.703308					
1467	337.391449					
1467.6	343.183594					
1468.2	346.079651					
1468.8	347.52771					
1469.4	377.936371					
1470	417.033234					
1470.6	353.319824					
1471.2	405.449005					
1471.8	322.911163					
1472.4	360.559998					
1473	373.592285					
1473.6	409.793091					
1474.2	325.80722					
1474.8	343.183594					
1475.4	337.391449					
1476	354.767853					
1476.6	350.423737					
1477.2	341.735565					
1477.8	328.703308					
1478.4	343.183594					
1479	331.599365					
1479.6	390.968658					
1480.2	357.66394					
1480.8	379.384399					
1481.4	357.66394					
1482	343.183594					
1482.6	348.975739					
1483.2	369.248169					
1483.8	343.183594					
1484.4	347.52771					
1485	322.911163					
1485.6	333.047394					
1486.2	377.936371					
1486.8	305.53476					
1487.4	370.696228					
1488	359.111938					
1488.6	353.319824					
1489.2	330.151306					
1489.8	375.040314					
1490.4	328.703308					
1491	311.326904					
1491.6	367.80014					
1492.2	344.631653					
1492.8	328.703308					
1493.4	364.904083					
1494	320.015106					
1494.6	321.463104					
1495.2	330.151306					
1495.8	341.735565					
1496.4	346.079651					
1497	334.495392					
1497.6	343.183594					
1498.2	353.319824					
1498.8	312.774933					
1499.4	350.423737					
1500	327.255249					
1500.6	306.982819					
1501.2	343.183594					
1501.8	320.015106					
1502.4	317.119019					
1503	344.631653					
1503.6	364.904083					
1504.2	367.80014					
1504.8	347.52771					
1505.4	353.319824					
1506	292.502472					
1506.6	375.040314					
1507.2	338.839508					
1507.8	351.871796					
1508.4	324.359192					
1509	340.287537					
1509.6	362.008026					
1510.2	340.287537					
1510.8	350.423737					
1511.4	338.839508					
1512	354.767853					
1512.6	364.904083					
1513.2	389.52063					
1513.8	331.599365					
1514.4	288.158386					
1515	322.911163					
1515.6	367.80014					
1516.2	351.871796					
1516.8	367.80014					
1517.4	321.463104					
1518	302.638733					
1518.6	321.463104					
1519.2	353.319824					
1519.8	304.086731					
1520.4	356.215881					
1521	330.151306					
1521.6	356.215881					
1522.2	304.086731					
1522.8	282.366241					
1523.4	348.975739					
1524	314.222961					
1524.6	344.631653					
1525.2	346.079651					
1525.8	348.975739					
1526.4	293.950531					
1527	331.599365					
1527.6	327.255249					
1528.2	363.456055					
1528.8	356.215881					
1529.4	333.047394					
1530	320.015106					
1530.6	311.326904					
1531.2	360.559998					
1531.8	338.839508					
1532.4	320.015106					
1533	286.710358					
1533.6	343.183594					
1534.2	328.703308					
1534.8	299.742645					
1535.4	289.606415					
1536	311.326904					
1536.6	324.359192					
1537.2	322.911163					
1537.8	275.126099					
1538.4	340.287537					
1539	305.53476					
1539.6	305.53476					
1540.2	305.53476					
1540.8	308.430817					
1541.4	318.567078					
1542	373.592285					
1542.6	325.80722					
1543.2	330.151306					
1543.8	301.190674					
1544.4	280.918243					
1545	324.359192					
1545.6	317.119019					
1546.2	292.502472					
1546.8	338.839508					
1547.4	296.846588					
1548	302.638733					
1548.6	308.430817					
1549.2	308.430817					
1549.8	324.359192					
1550.4	314.222961					
1551	286.710358					
1551.6	327.255249					
1552.2	304.086731					
1552.8	301.190674					
1553.4	311.326904					
1554	305.53476					
1554.6	293.950531					
1555.2	315.671021					
1555.8	322.911163					
1556.4	295.398529					
1557	315.671021					
1557.6	312.774933					
1558.2	298.294617					
1558.8	320.015106					
1559.4	270.782013					
1560	318.567078					
1560.6	285.262329					
1561.2	330.151306					
1561.8	288.158386					
1562.4	311.326904					
1563	299.742645					
1563.6	327.255249					
1564.2	311.326904					
1564.8	308.430817					
1565.4	333.047394					
1566	330.151306					
1566.6	240.373322					
1567.2	301.190674					
1567.8	275.126099					
1568.4	288.158386					
1569	296.846588					
1569.6	299.742645					
1570.2	282.366241					
1570.8	317.119019					
1571.4	325.80722					
1572	296.846588					
1572.6	267.885956					
1573.2	283.814301					
1573.8	309.878876					
1574.4	321.463104					
1575	286.710358					
1575.6	279.470184					
1576.2	333.047394					
1576.8	289.606415					
1577.4	289.606415					
1578	318.567078					
1578.6	291.054443					
1579.2	293.950531					
1579.8	246.165451					
1580.4	318.567078					
1581	317.119019					
1581.6	267.885956					
1582.2	267.885956					
1582.8	309.878876					
1583.4	280.918243					
1584	279.470184					
1584.6	278.022156					
1585.2	315.671021					
1585.8	330.151306					
1586.4	263.54184					
1587	286.710358					
1587.6	308.430817					
1588.2	280.918243					
1588.8	304.086731					
1589.4	273.67804					
1590	321.463104					
1590.6	279.470184					
1591.2	272.230042					
1591.8	273.67804					
1592.4	305.53476					
1593	322.911163					
1593.6	291.054443					
1594.2	324.359192					
1594.8	285.262329					
1595.4	272.230042					
1596	309.878876					
1596.6	320.015106					
1597.2	292.502472					
1597.8	322.911163					
1598.4	267.885956					
1599	302.638733					
1599.6	270.782013					
1600.2	295.398529					
1600.8	279.470184					
1601.4	305.53476					
1602	260.645752					
1602.6	295.398529					
1603.2	314.222961					
1603.8	276.574127					
1604.4	286.710358					
1605	288.158386					
1605.6	279.470184					
1606.2	298.294617					
1606.8	266.437897					
1607.4	278.022156					
1608	273.67804					
1608.6	275.126099					
1609.2	267.885956					
1609.8	314.222961					
1610.4	291.054443					
1611	279.470184					
1611.6	257.749725					
1612.2	273.67804					
1612.8	314.222961					
1613.4	273.67804					
1614	282.366241					
1614.6	270.782013					
1615.2	304.086731					
1615.8	282.366241					
1616.4	267.885956					
1617	283.814301					
1617.6	295.398529					
1618.2	283.814301					
1618.8	308.430817					
1619.4	311.326904					
1620	270.782013					
1620.6	296.846588					
1621.2	315.671021					
1621.8	272.230042					
1622.4	280.918243					
1623	291.054443					
1623.6	259.197754					
1624.2	276.574127					
1624.8	263.54184					
1625.4	240.373322					
1626	301.190674					
1626.6	301.190674					
1627.2	280.918243					
1627.8	262.093811					
1628.4	292.502472					
1629	264.989868					
1629.6	266.437897					
1630.2	262.093811					
1630.8	276.574127					
1631.4	306.982819					
1632	257.749725					
1632.6	270.782013					
1633.2	263.54184					
1633.8	299.742645					
1634.4	285.262329					
1635	280.918243					
1635.6	270.782013					
1636.2	253.405609					
1636.8	286.710358					
1637.4	273.67804					
1638	273.67804					
1638.6	259.197754					
1639.2	267.885956					
1639.8	254.853638					
1640.4	306.982819					
1641	256.301666					
1641.6	304.086731					
1642.2	266.437897					
1642.8	278.022156					
1643.4	283.814301					
1644	320.015106					
1644.6	253.405609					
1645.2	249.061523					
1645.8	282.366241					
1646.4	236.029221					
1647	288.158386					
1647.6	241.82135					
1648.2	269.333954					
1648.8	295.398529					
1649.4	273.67804					
1650	241.82135					
1650.6	276.574127					
1651.2	276.574127					
1651.8	266.437897					
1652.4	283.814301					
1653	243.269394					
1653.6	249.061523					
1654.2	280.918243					
1654.8	266.437897					
1655.4	253.405609					
1656	254.853638					
1656.6	247.613495					
1657.2	275.126099					
1657.8	292.502472					
1658.4	283.814301					
1659	260.645752					
1659.6	270.782013					
1660.2	296.846588					
1660.8	289.606415					
1661.4	247.613495					
1662	253.405609					
1662.6	270.782013					
1663.2	270.782013					
1663.8	240.373322					
1664.4	257.749725					
1665	282.366241					
1665.6	259.197754					
1666.2	266.437897					
1666.8	272.230042					
1667.4	276.574127					
1668	280.918243					
1668.6	250.509537					
1669.2	257.749725					
1669.8	264.989868					
1670.4	263.54184					
1671	278.022156					
1671.6	246.165451					
1672.2	262.093811					
1672.8	224.444977					
1673.4	272.230042					
1674	205.620544					
1674.6	286.710358					
1675.2	251.957581					
1675.8	243.269394					
1676.4	240.373322					
1677	291.054443					
1677.6	275.126099					
1678.2	260.645752					
1678.8	263.54184					
1679.4	262.093811					
1680	262.093811					
1680.6	243.269394					
1681.2	267.885956					
1681.8	301.190674					
1682.4	233.133179					
1683	230.237106					
1683.6	227.341034					
1684.2	256.301666					
1684.8	249.061523					
1685.4	270.782013					
1686	264.989868					
1686.6	225.893005					
1687.2	243.269394					
1687.8	227.341034					
1688.4	217.204819					
1689	246.165451					
1689.6	257.749725					
1690.2	237.477249					
1690.8	251.957581					
1691.4	254.853638					
1692	292.502472					
1692.6	215.75679					
1693.2	260.645752					
1693.8	260.645752					
1694.4	185.348114					
1695	220.100876					
1695.6	241.82135					
1696.2	275.126099					
1696.8	253.405609					
1697.4	253.405609					
1698	237.477249					
1698.6	263.54184					
1699.2	237.477249					
1699.8	267.885956					
1700.4	264.989868					
1701	238.925293					
1701.6	241.82135					
1702.2	249.061523					
1702.8	263.54184					
1703.4	238.925293					
1704	234.581207					
1704.6	259.197754					
1705.2	254.853638					
1705.8	264.989868					
1706.4	243.269394					
1707	266.437897					
1707.6	212.860718					
1708.2	236.029221					
1708.8	222.996933					
1709.4	198.380402					
1710	241.82135					
1710.6	253.405609					
1711.2	241.82135					
1711.8	262.093811					
1712.4	240.373322					
1713	227.341034					
1713.6	205.620544					
1714.2	241.82135					
1714.8	225.893005					
1715.4	244.717422					
1716	220.100876					
1716.6	259.197754					
1717.2	220.100876					
1717.8	240.373322					
1718.4	222.996933					
1719	276.574127					
1719.6	240.373322					
1720.2	240.373322					
1720.8	246.165451					
1721.4	244.717422					
1722	243.269394					
1722.6	243.269394					
1723.2	233.133179					
1723.8	227.341034					
1724.4	218.652847					
1725	272.230042					
1725.6	241.82135					
1726.2	251.957581					
1726.8	267.885956					
1727.4	234.581207					
1728	270.782013					
1728.6	273.67804					
1729.2	233.133179					
1729.8	241.82135					
1730.4	241.82135					
1731	225.893005					
1731.6	243.269394					
1732.2	253.405609					
1732.8	259.197754					
1733.4	224.444977					
1734	224.444977					
1734.6	227.341034					
1735.2	230.237106					
1735.8	234.581207					
1736.4	247.613495					
1737	238.925293					
1737.6	224.444977					
1738.2	236.029221					
1738.8	227.341034					
1739.4	231.685135					
1740	218.652847					
1740.6	260.645752					
1741.2	209.964645					
1741.8	208.516617					
1742.4	204.172531					
1743	199.82843					
1743.6	282.366241					
1744.2	225.893005					
1744.8	227.341034					
1745.4	214.308746					
1746	244.717422					
1746.6	208.516617					
1747.2	214.308746					
1747.8	205.620544					
1748.4	220.100876					
1749	234.581207					
1749.6	230.237106					
1750.2	241.82135					
1750.8	188.244171					
1751.4	207.068588					
1752	218.652847					
1752.6	196.932358					
1753.2	247.613495					
1753.8	238.925293					
1754.4	218.652847					
1755	244.717422					
1755.6	218.652847					
1756.2	221.548904					
1756.8	205.620544					
1757.4	205.620544					
1758	241.82135					
1758.6	191.140228					
1759.2	214.308746					
1759.8	208.516617					
1760.4	243.269394					
1761	259.197754					
1761.6	234.581207					
1762.2	230.237106					
1762.8	196.932358					
1763.4	188.244171					
1764	272.230042					
1764.6	222.996933					
1765.2	240.373322					
1765.8	238.925293					
1766.4	224.444977					
1767	221.548904					
1767.6	222.996933					
1768.2	217.204819					
1768.8	198.380402					
1769.4	221.548904					
1770	208.516617					
1770.6	240.373322					
1771.2	244.717422					
1771.8	231.685135					
1772.4	211.412689					
1773	234.581207					
1773.6	209.964645					
1774.2	238.925293					
1774.8	205.620544					
1775.4	256.301666					
1776	217.204819					
1776.6	250.509537					
1777.2	225.893005					
1777.8	212.860718					
1778.4	237.477249					
1779	236.029221					
1779.6	214.308746					
1780.2	266.437897					
1780.8	249.061523					
1781.4	217.204819					
1782	205.620544					
1782.6	222.996933					
1783.2	240.373322					
1783.8	215.75679					
1784.4	214.308746					
1785	217.204819					
1785.6	214.308746					
1786.2	202.724503					
1786.8	225.893005					
1787.4	186.796143					
1788	208.516617					
1788.6	204.172531					
1789.2	198.380402					
1789.8	195.484329					
1790.4	240.373322					
1791	218.652847					
1791.6	199.82843					
1792.2	218.652847					
1792.8	214.308746					
1793.4	202.724503					
1794	198.380402					
1794.6	195.484329					
1795.2	228.789078					
1795.8	264.989868					
1796.4	211.412689					
1797	195.484329					
1797.6	225.893005					
1798.2	194.036301					
1798.8	250.509537					
1799.4	240.373322					
1800	169.419754					
1800.6	191.140228					
1801.2	194.036301					
1801.8	259.197754					
1802.4	212.860718					
1803	207.068588					
1803.6	221.548904					
1804.2	194.036301					
1804.8	188.244171					
1805.4	212.860718					
1806	163.627625					
1806.6	211.412689					
1807.2	192.588257					
1807.8	225.893005					
1808.4	231.685135					
1809	221.548904					
1809.6	198.380402					
1810.2	227.341034					
1810.8	194.036301					
1811.4	208.516617					
1812	202.724503					
1812.6	191.140228					
1813.2	196.932358					
1813.8	237.477249					
1814.4	212.860718					
1815	233.133179					
1815.6	222.996933					
1816.2	218.652847					
1816.8	233.133179					
1817.4	224.444977					
1818	233.133179					
1818.6	199.82843					
1819.2	218.652847					
1819.8	227.341034					
1820.4	185.348114					
1821	214.308746					
1821.6	212.860718					
1822.2	196.932358					
1822.8	198.380402					
1823.4	198.380402					
1824	237.477249					
1824.6	201.276459					
1825.2	202.724503					
1825.8	215.75679					
1826.4	217.204819					
1827	212.860718					
1827.6	218.652847					
1828.2	202.724503					
1828.8	224.444977					
1829.4	195.484329					
1830	202.724503					
1830.6	199.82843					
1831.2	186.796143					
1831.8	189.6922					
1832.4	201.276459					
1833	218.652847					
1833.6	205.620544					
1834.2	201.276459					
1834.8	196.932358					
1835.4	220.100876					
1836	246.165451					
1836.6	225.893005					
1837.2	214.308746					
1837.8	208.516617					
1838.4	244.717422					
1839	211.412689					
1839.6	156.387466					
1840.2	195.484329					
1840.8	178.107941					
1841.4	179.555969					
1842	205.620544					
1842.6	220.100876					
1843.2	205.620544					
1843.8	167.971725					
1844.4	192.588257					
1845	194.036301					
1845.6	195.484329					
1846.2	196.932358					
1846.8	182.452042					
1847.4	194.036301					
1848	192.588257					
1848.6	181.004013					
1849.2	198.380402					
1849.8	202.724503					
1850.4	209.964645					
1851	166.523697					
1851.6	185.348114					
1852.2	195.484329					
1852.8	192.588257					
1853.4	211.412689					
1854	185.348114					
1854.6	201.276459					
1855.2	218.652847					
1855.8	217.204819					
1856.4	178.107941					
1857	183.90007					
1857.6	222.996933					
1858.2	218.652847					
1858.8	175.211868					
1859.4	198.380402					
1860	227.341034					
1860.6	191.140228					
1861.2	199.82843					
1861.8	195.484329					
1862.4	183.90007					
1863	178.107941					
1863.6	178.107941					
1864.2	195.484329					
1864.8	220.100876					
1865.4	185.348114					
1866	186.796143					
1866.6	196.932358					
1867.2	209.964645					
1867.8	166.523697					
1868.4	217.204819					
1869	198.380402					
1869.6	185.348114					
1870.2	170.867783					
1870.8	202.724503					
1871.4	205.620544					
1872	157.83551					
1872.6	191.140228					
1873.2	209.964645					
1873.8	176.659912					
1874.4	191.140228					
1875	224.444977					
1875.6	183.90007					
1876.2	186.796143					
1876.8	209.964645					
1877.4	186.796143					
1878	170.867783					
1878.6	202.724503					
1879.2	198.380402					
1879.8	182.452042					
1880.4	214.308746					
1881	189.6922					
1881.6	172.315826					
1882.2	166.523697					
1882.8	149.147308					
1883.4	209.964645					
1884	173.763855					
1884.6	188.244171					
1885.2	194.036301					
1885.8	194.036301					
1886.4	195.484329					
1887	157.83551					
1887.6	166.523697					
1888.2	160.731552					
1888.8	169.419754					
1889.4	186.796143					
1890	192.588257					
1890.6	196.932358					
1891.2	165.075653					
1891.8	212.860718					
1892.4	166.523697					
1893	169.419754					
1893.6	183.90007					
1894.2	218.652847					
1894.8	220.100876					
1895.4	169.419754					
1896	198.380402					
1896.6	214.308746					
1897.2	176.659912					
1897.8	195.484329					
1898.4	181.004013					
1899	176.659912					
1899.6	202.724503					
1900.2	188.244171					
1900.8	188.244171					
1901.4	179.555969					
1902	182.452042					
1902.6	173.763855					
1903.2	179.555969					
1903.8	182.452042					
1904.4	196.932358					
1905	208.516617					
1905.6	198.380402					
1906.2	157.83551					
1906.8	173.763855					
1907.4	179.555969					
1908	189.6922					
1908.6	179.555969					
1909.2	153.491409					
1909.8	163.627625					
1910.4	178.107941					
1911	175.211868					
1911.6	186.796143					
1912.2	170.867783					
1912.8	182.452042					
1913.4	202.724503					
1914	186.796143					
1914.6	183.90007					
1915.2	191.140228					
1915.8	191.140228					
1916.4	183.90007					
1917	189.6922					
1917.6	159.283539					
1918.2	173.763855					
1918.8	167.971725					
1919.4	182.452042					
1920	214.308746					
1920.6	194.036301					
1921.2	163.627625					
1921.8	209.964645					
1922.4	163.627625					
1923	186.796143					
1923.6	173.763855					
1924.2	185.348114					
1924.8	196.932358					
1925.4	179.555969					
1926	172.315826					
1926.6	188.244171					
1927.2	185.348114					
1927.8	181.004013					
1928.4	175.211868					
1929	147.699265					
1929.6	170.867783					
1930.2	178.107941					
1930.8	217.204819					
1931.4	170.867783					
1932	169.419754					
1932.6	170.867783					
1933.2	181.004013					
1933.8	185.348114					
1934.4	209.964645					
1935	198.380402					
1935.6	176.659912					
1936.2	189.6922					
1936.8	170.867783					
1937.4	189.6922					
1938	217.204819					
1938.6	191.140228					
1939.2	167.971725					
1939.8	181.004013					
1940.4	179.555969					
1941	159.283539					
1941.6	202.724503					
1942.2	182.452042					
1942.8	185.348114					
1943.4	165.075653					
1944	201.276459					
1944.6	143.355179					
1945.2	207.068588					
1945.8	172.315826					
1946.4	188.244171					
1947	165.075653					
1947.6	163.627625					
1948.2	195.484329					
1948.8	183.90007					
1949.4	160.731552					
1950	173.763855					
1950.6	159.283539					
1951.2	146.251236					
1951.8	167.971725					
1952.4	176.659912					
1953	152.043365					
1953.6	157.83551					
1954.2	153.491409					
1954.8	169.419754					
1955.4	185.348114					
1956	186.796143					
1956.6	199.82843					
1957.2	202.724503					
1957.8	150.595337					
1958.4	179.555969					
1959	167.971725					
1959.6	199.82843					
1960.2	169.419754					
1960.8	141.90715					
1961.4	191.140228					
1962	176.659912					
1962.6	172.315826					
1963.2	179.555969					
1963.8	179.555969					
1964.4	152.043365					
1965	162.179596					
1965.6	175.211868					
1966.2	173.763855					
1966.8	150.595337					
1967.4	172.315826					
1968	183.90007					
1968.6	179.555969					
1969.2	159.283539					
1969.8	188.244171					
1970.4	173.763855					
1971	188.244171					
1971.6	163.627625					
1972.2	156.387466					
1972.8	175.211868					
1973.4	165.075653					
1974	169.419754					
1974.6	162.179596					
1975.2	178.107941					
1975.8	163.627625					
1976.4	172.315826					
1977	131.77092					
1977.6	166.523697					
1978.2	189.6922					
1978.8	175.211868					
1979.4	179.555969					
1980	179.555969					
1980.6	175.211868					
1981.2	194.036301					
1981.8	166.523697					
1982.4	169.419754					
1983	185.348114					
1983.6	175.211868					
1984.2	139.011078					
1984.8	179.555969					
1985.4	159.283539					
1986	167.971725					
1986.6	165.075653					
1987.2	181.004013					
1987.8	188.244171					
1988.4	159.283539					
1989	175.211868					
1989.6	188.244171					
1990.2	166.523697					
1990.8	181.004013					
1991.4	166.523697					
1992	157.83551					
1992.6	176.659912					
1993.2	163.627625					
1993.8	169.419754					
1994.4	152.043365					
1995	172.315826					
1995.6	136.115021					
1996.2	160.731552					
1996.8	183.90007					
1997.4	165.075653					
1998	150.595337					
1998.6	176.659912					
1999.2	170.867783					
1999.8	162.179596					
2000.4	147.699265					
2001	147.699265					
2001.6	169.419754					
2002.2	147.699265					
2002.8	139.011078					
2003.4	181.004013					
2004	121.634697					
2004.6	167.971725					
2005.2	162.179596					
2005.8	211.412689					
2006.4	172.315826					
2007	172.315826					
2007.6	181.004013					
2008.2	170.867783					
2008.8	153.491409					
2009.4	137.563049					
2010	154.939438					
2010.6	136.115021					
2011.2	169.419754					
2011.8	181.004013					
2012.4	162.179596					
2013	156.387466					
2013.6	166.523697					
2014.2	173.763855					
2014.8	167.971725					
2015.4	170.867783					
2016	160.731552					
2016.6	169.419754					
2017.2	137.563049					
2017.8	124.530762					
2018.4	169.419754					
2019	183.90007					
2019.6	166.523697					
2020.2	153.491409					
2020.8	156.387466					
2021.4	134.666977					
2022	157.83551					
2022.6	156.387466					
2023.2	167.971725					
2023.8	156.387466					
2024.4	127.426819					
2025	146.251236					
2025.6	172.315826					
2026.2	150.595337					
2026.8	146.251236					
2027.4	162.179596					
2028	173.763855					
2028.6	139.011078					
2029.2	139.011078					
2029.8	186.796143					
2030.4	154.939438					
2031	156.387466					
2031.6	156.387466					
2032.2	144.803207					
2032.8	172.315826					
2033.4	175.211868					
2034	175.211868					
2034.6	139.011078					
2035.2	143.355179					
2035.8	144.803207					
2036.4	137.563049					
2037	149.147308					
2037.6	153.491409					
2038.2	173.763855					
2038.8	141.90715					
2039.4	162.179596					
2040	170.867783					
2040.6	147.699265					
2041.2	183.90007					
2041.8	183.90007					
2042.4	146.251236					
2043	163.627625					
2043.6	144.803207					
2044.2	154.939438					
2044.8	159.283539					
2045.4	156.387466					
2046	127.426819					
2046.6	178.107941					
2047.2	183.90007					
2047.8	165.075653					
2048.4	140.459122					
2049	121.634697					
2049.6	163.627625					
2050.2	139.011078					
2050.8	157.83551					
2051.4	160.731552					
2052	165.075653					
2052.6	140.459122					
2053.2	147.699265					
2053.8	162.179596					
2054.4	139.011078					
2055	150.595337					
2055.6	150.595337					
2056.2	149.147308					
2056.8	154.939438					
2057.4	166.523697					
2058	134.666977					
2058.6	141.90715					
2059.2	139.011078					
2059.8	140.459122					
2060.4	118.738625					
2061	165.075653					
2061.6	150.595337					
2062.2	144.803207					
2062.8	157.83551					
2063.4	152.043365					
2064	159.283539					
2064.6	172.315826					
2065.2	160.731552					
2065.8	149.147308					
2066.4	154.939438					
2067	178.107941					
2067.6	186.796143					
2068.2	159.283539					
2068.8	149.147308					
2069.4	131.77092					
2070	140.459122					
2070.6	143.355179					
2071.2	153.491409					
2071.8	154.939438					
2072.4	133.218948					
2073	154.939438					
2073.6	170.867783					
2074.2	134.666977					
2074.8	144.803207					
2075.4	146.251236					
2076	133.218948					
2076.6	173.763855					
2077.2	163.627625					
2077.8	143.355179					
2078.4	131.77092					
2079	153.491409					
2079.6	157.83551					
2080.2	141.90715					
2080.8	140.459122					
2081.4	162.179596					
2082	159.283539					
2082.6	150.595337					
2083.2	131.77092					
2083.8	128.874863					
2084.4	152.043365					
2085	140.459122					
2085.6	146.251236					
2086.2	144.803207					
2086.8	144.803207					
2087.4	157.83551					
2088	143.355179					
2088.6	144.803207					
2089.2	163.627625					
2089.8	140.459122					
2090.4	128.874863					
2091	143.355179					
2091.6	139.011078					
2092.2	165.075653					
2092.8	144.803207					
2093.4	162.179596					
2094	179.555969					
2094.6	139.011078					
2095.2	141.90715					
2095.8	147.699265					
2096.4	156.387466					
2097	139.011078					
2097.6	134.666977					
2098.2	137.563049					
2098.8	130.322876					
2099.4	127.426819					
2100	144.803207					
2100.6	144.803207					
2101.2	165.075653					
2101.8	141.90715					
2102.4	127.426819					
2103	147.699265					
2103.6	150.595337					
2104.2	133.218948					
2104.8	131.77092					
2105.4	130.322876					
2106	136.115021					
2106.6	128.874863					
2107.2	121.634697					
2107.8	141.90715					
2108.4	133.218948					
2109	124.530762					
2109.6	127.426819					
2110.2	163.627625					
2110.8	125.97879					
2111.4	166.523697					
2112	147.699265					
2112.6	153.491409					
2113.2	143.355179					
2113.8	133.218948					
2114.4	124.530762					
2115	144.803207					
2115.6	137.563049					
2116.2	152.043365					
2116.8	144.803207					
2117.4	94.1220856					
2118	172.315826					
2118.6	143.355179					
2119.2	153.491409					
2119.8	131.77092					
2120.4	140.459122					
2121	118.738625					
2121.6	101.362251					
2122.2	128.874863					
2122.8	133.218948					
2123.4	127.426819					
2124	133.218948					
2124.6	152.043365					
2125.2	146.251236					
2125.8	146.251236					
2126.4	157.83551					
2127	143.355179					
2127.6	139.011078					
2128.2	152.043365					
2128.8	152.043365					
2129.4	162.179596					
2130	140.459122					
2130.6	131.77092					
2131.2	172.315826					
2131.8	144.803207					
2132.4	131.77092					
2133	123.082726					
2133.6	125.97879					
2134.2	141.90715					
2134.8	152.043365					
2135.4	131.77092					
2136	112.946503					
2136.6	136.115021					
2137.2	134.666977					
2137.8	130.322876					
2138.4	159.283539					
2139	133.218948					
2139.6	150.595337					
2140.2	160.731552					
2140.8	125.97879					
2141.4	141.90715					
2142	156.387466					
2142.6	146.251236					
2143.2	124.530762					
2143.8	144.803207					
2144.4	107.154373					
2145	136.115021					
2145.6	128.874863					
2146.2	156.387466					
2146.8	124.530762					
2147.4	149.147308					
2148	130.322876					
2148.6	140.459122					
2149.2	154.939438					
2149.8	130.322876					
2150.4	131.77092					
2151	123.082726					
2151.6	101.362251					
2152.2	118.738625					
2152.8	143.355179					
2153.4	141.90715					
2154	133.218948					
2154.6	140.459122					
2155.2	111.498466					
2155.8	141.90715					
2156.4	149.147308					
2157	110.050438					
2157.6	139.011078					
2158.2	134.666977					
2158.8	111.498466					
2159.4	118.738625					
2160	147.699265					
2160.6	154.939438					
2161.2	131.77092					
2161.8	139.011078					
2162.4	146.251236					
2163	124.530762					
2163.6	124.530762					
2164.2	144.803207					
2164.8	124.530762					
2165.4	133.218948					
2166	124.530762					
2166.6	152.043365					
2167.2	108.602409					
2167.8	133.218948					
2168.4	130.322876					
2169	110.050438					
2169.6	118.738625					
2170.2	128.874863					
2170.8	134.666977					
2171.4	107.154373					
2172	125.97879					
2172.6	136.115021					
2173.2	130.322876					
2173.8	149.147308					
2174.4	149.147308					
2175	114.394539					
2175.6	144.803207					
2176.2	128.874863					
2176.8	141.90715					
2177.4	165.075653					
2178	118.738625					
2178.6	125.97879					
2179.2	143.355179					
2179.8	133.218948					
2180.4	160.731552					
2181	147.699265					
2181.6	128.874863					
2182.2	117.290604					
2182.8	153.491409					
2183.4	101.362251					
2184	128.874863					
2184.6	133.218948					
2185.2	107.154373					
2185.8	144.803207					
2186.4	118.738625					
2187	123.082726					
2187.6	118.738625					
2188.2	124.530762					
2188.8	115.842567					
2189.4	120.186661					
2190	125.97879					
2190.6	108.602409					
2191.2	121.634697					
2191.8	107.154373					
2192.4	128.874863					
2193	136.115021					
2193.6	114.394539					
2194.2	115.842567					
2194.8	133.218948					
2195.4	107.154373					
2196	111.498466					
2196.6	125.97879					
2197.2	134.666977					
2197.8	140.459122					
2198.4	115.842567					
2199	125.97879					
2199.6	130.322876					
2200.2	137.563049					
2200.8	131.77092					
2201.4	118.738625					
2202	115.842567					
2202.6	134.666977					
2203.2	134.666977					
2203.8	127.426819					
2204.4	108.602409					
2205	128.874863					
2205.6	115.842567					
2206.2	137.563049					
2206.8	124.530762					
2207.4	125.97879					
2208	127.426819					
2208.6	130.322876					
2209.2	134.666977					
2209.8	117.290604					
2210.4	147.699265					
2211	125.97879					
2211.6	128.874863					
2212.2	137.563049					
2212.8	130.322876					
2213.4	127.426819					
2214	139.011078					
2214.6	120.186661					
2215.2	133.218948					
2215.8	111.498466					
2216.4	114.394539					
2217	134.666977					
2217.6	120.186661					
2218.2	136.115021					
2218.8	115.842567					
2219.4	111.498466					
2220	134.666977					
2220.6	120.186661					
2221.2	149.147308					
2221.8	112.946503					
2222.4	125.97879					
2223	141.90715					
2223.6	130.322876					
2224.2	127.426819					
2224.8	118.738625					
2225.4	108.602409					
2226	115.842567					
2226.6	120.186661					
2227.2	120.186661					
2227.8	140.459122					
2228.4	112.946503					
2229	128.874863					
2229.6	110.050438					
2230.2	112.946503					
2230.8	108.602409					
2231.4	134.666977					
2232	131.77092					
2232.6	101.362251					
2233.2	105.706345					
2233.8	108.602409					
2234.4	136.115021					
2235	114.394539					
2235.6	123.082726					
2236.2	107.154373					
2236.8	130.322876					
2237.4	114.394539					
2238	123.082726					
2238.6	115.842567					
2239.2	92.674057					
2239.8	128.874863					
2240.4	107.154373					
2241	120.186661					
2241.6	104.258308					
2242.2	107.154373					
2242.8	130.322876					
2243.4	98.4661789					
2244	110.050438					
2244.6	94.1220856					
2245.2	123.082726					
2245.8	131.77092					
2246.4	112.946503					
2247	133.218948					
2247.6	127.426819					
2248.2	102.810272					
2248.8	118.738625					
2249.4	101.362251					
2250	141.90715					
2250.6	120.186661					
2251.2	98.4661789					
2251.8	143.355179					
2252.4	118.738625					
2253	95.5701141					
2253.6	127.426819					
2254.2	95.5701141					
2254.8	124.530762					
2255.4	118.738625					
2256	102.810272					
2256.6	127.426819					
2257.2	105.706345					
2257.8	104.258308					
2258.4	141.90715					
2259	107.154373					
2259.6	110.050438					
2260.2	114.394539					
2260.8	143.355179					
2261.4	108.602409					
2262	111.498466					
2262.6	130.322876					
2263.2	115.842567					
2263.8	115.842567					
2264.4	131.77092					
2265	128.874863					
2265.6	136.115021					
2266.2	124.530762					
2266.8	120.186661					
2267.4	133.218948					
2268	123.082726					
2268.6	141.90715					
2269.2	114.394539					
2269.8	88.3299561					
2270.4	117.290604					
2271	118.738625					
2271.6	110.050438					
2272.2	114.394539					
2272.8	110.050438					
2273.4	133.218948					
2274	91.2260208					
2274.6	110.050438					
2275.2	98.4661789					
2275.8	121.634697					
2276.4	97.0181503					
2277	117.290604					
2277.6	123.082726					
2278.2	117.290604					
2278.8	91.2260208					
2279.4	101.362251					
2280	144.803207					
2280.6	123.082726					
2281.2	104.258308					
2281.8	134.666977					
2282.4	130.322876					
2283	137.563049					
2283.6	123.082726					
2284.2	108.602409					
2284.8	125.97879					
2285.4	131.77092					
2286	101.362251					
2286.6	99.9142151					
2287.2	95.5701141					
2287.8	105.706345					
2288.4	123.082726					
2289	102.810272					
2289.6	99.9142151					
2290.2	102.810272					
2290.8	111.498466					
2291.4	137.563049					
2292	117.290604					
2292.6	110.050438					
2293.2	117.290604					
2293.8	121.634697					
2294.4	117.290604					
2295	144.803207					
2295.6	102.810272					
2296.2	133.218948					
2296.8	118.738625					
2297.4	111.498466					
2298	130.322876					
2298.6	105.706345					
2299.2	107.154373					
2299.8	114.394539					
2300.4	127.426819					
2301	127.426819					
2301.6	95.5701141					
2302.2	105.706345					
2302.8	124.530762					
2303.4	112.946503					
2304	117.290604					
2304.6	131.77092					
2305.2	115.842567					
2305.8	120.186661					
2306.4	99.9142151					
2307	97.0181503					
2307.6	89.7779846					
2308.2	92.674057					
2308.8	120.186661					
2309.4	102.810272					
2310	95.5701141					
2310.6	118.738625					
2311.2	102.810272					
2311.8	130.322876					
2312.4	98.4661789					
2313	112.946503					
2313.6	136.115021					
2314.2	117.290604					
2314.8	124.530762					
2315.4	117.290604					
2316	118.738625					
2316.6	114.394539					
2317.2	94.1220856					
2317.8	112.946503					
2318.4	121.634697					
2319	108.602409					
2319.6	114.394539					
2320.2	111.498466					
2320.8	111.498466					
2321.4	97.0181503					
2322	105.706345					
2322.6	111.498466					
2323.2	128.874863					
2323.8	105.706345					
2324.4	97.0181503					
2325	99.9142151					
2325.6	108.602409					
2326.2	118.738625					
2326.8	101.362251					
2327.4	107.154373					
2328	105.706345					
2328.6	92.674057					
2329.2	115.842567					
2329.8	114.394539					
2330.4	94.1220856					
2331	114.394539					
2331.6	112.946503					
2332.2	88.3299561					
2332.8	117.290604					
2333.4	91.2260208					
2334	91.2260208					
2334.6	147.699265					
2335.2	94.1220856					
2335.8	110.050438					
2336.4	123.082726					
2337	117.290604					
2337.6	120.186661					
2338.2	111.498466					
2338.8	114.394539					
2339.4	91.2260208					
2340	86.8819275					
2340.6	120.186661					
2341.2	108.602409					
2341.8	112.946503					
2342.4	112.946503					
2343	114.394539					
2343.6	111.498466					
2344.2	99.9142151					
2344.8	105.706345					
2345.4	108.602409					
2346	101.362251					
2346.6	104.258308					
2347.2	104.258308					
2347.8	123.082726					
2348.4	107.154373					
2349	99.9142151					
2349.6	124.530762					
2350.2	94.1220856					
2350.8	94.1220856					
2351.4	89.7779846					
2352	104.258308					
2352.6	137.563049					
2353.2	92.674057					
2353.8	123.082726					
2354.4	102.810272					
2355	101.362251					
2355.6	134.666977					
2356.2	111.498466					
2356.8	104.258308					
2357.4	98.4661789					
2358	104.258308					
2358.6	110.050438					
2359.2	104.258308					
2359.8	121.634697					
2360.4	92.674057					
2361	107.154373					
2361.6	81.089798					
2362.2	89.7779846					
2362.8	98.4661789					
2363.4	107.154373					
2364	83.9858627					
2364.6	107.154373					
2365.2	101.362251					
2365.8	105.706345					
2366.4	91.2260208					
2367	110.050438					
2367.6	92.674057					
2368.2	112.946503					
2368.8	99.9142151					
2369.4	105.706345					
2370	91.2260208					
2370.6	102.810272					
2371.2	95.5701141					
2371.8	115.842567					
2372.4	102.810272					
2373	110.050438					
2373.6	117.290604					
2374.2	99.9142151					
2374.8	111.498466					
2375.4	121.634697					
2376	81.089798					
2376.6	94.1220856					
2377.2	108.602409					
2377.8	104.258308					
2378.4	99.9142151					
2379	105.706345					
2379.6	139.011078					
2380.2	97.0181503					
2380.8	91.2260208					
2381.4	114.394539					
2382	94.1220856					
2382.6	111.498466					
2383.2	70.9535751					
2383.8	101.362251					
2384.4	94.1220856					
2385	99.9142151					
2385.6	98.4661789					
2386.2	107.154373					
2386.8	111.498466					
2387.4	104.258308					
2388	115.842567					
2388.6	107.154373					
2389.2	107.154373					
2389.8	105.706345					
2390.4	110.050438					
2391	111.498466					
2391.6	85.4338913					
2392.2	120.186661					
2392.8	101.362251					
2393.4	86.8819275					
2394	127.426819					
2394.6	111.498466					
2395.2	107.154373					
2395.8	107.154373					
2396.4	108.602409					
2397	110.050438					
2397.6	101.362251					
2398.2	92.674057					
2398.8	121.634697					
2399.4	94.1220856					
2400	105.706345					
2400.6	89.7779846					
2401.2	112.946503					
2401.8	91.2260208					
2402.4	121.634697					
2403	99.9142151					
2403.6	83.9858627					
2404.2	83.9858627					
2404.8	97.0181503					
2405.4	114.394539					
2406	88.3299561					
2406.6	89.7779846					
2407.2	91.2260208					
2407.8	107.154373					
2408.4	99.9142151					
2409	101.362251					
2409.6	99.9142151					
2410.2	114.394539					
2410.8	117.290604					
2411.4	89.7779846					
2412	111.498466					
2412.6	92.674057					
2413.2	104.258308					
2413.8	86.8819275					
2414.4	102.810272					
2415	105.706345					
2415.6	85.4338913					
2416.2	99.9142151					
2416.8	131.77092					
2417.4	98.4661789					
2418	101.362251					
2418.6	98.4661789					
2419.2	121.634697					
2419.8	114.394539					
2420.4	128.874863					
2421	105.706345					
2421.6	83.9858627					
2422.2	102.810272					
2422.8	83.9858627					
2423.4	124.530762					
2424	88.3299561					
2424.6	108.602409					
2425.2	78.1937332					
2425.8	104.258308					
2426.4	78.1937332					
2427	82.5378265					
2427.6	121.634697					
2428.2	88.3299561					
2428.8	89.7779846					
2429.4	78.1937332					
2430	99.9142151					
2430.6	99.9142151					
2431.2	82.5378265					
2431.8	78.1937332					
2432.4	110.050438					
2433	111.498466					
2433.6	131.77092					
2434.2	83.9858627					
2434.8	82.5378265					
2435.4	112.946503					
2436	78.1937332					
2436.6	110.050438					
2437.2	75.2976685					
2437.8	98.4661789					
2438.4	66.6094742					
2439	105.706345					
2439.6	95.5701141					
2440.2	85.4338913					
2440.8	92.674057					
2441.4	83.9858627					
2442	85.4338913					
2442.6	79.6417694					
2443.2	97.0181503					
2443.8	105.706345					
2444.4	99.9142151					
2445	104.258308					
2445.6	75.2976685					
2446.2	95.5701141					
2446.8	114.394539					
2447.4	85.4338913					
2448	91.2260208					
2448.6	86.8819275					
2449.2	86.8819275					
2449.8	89.7779846					
2450.4	102.810272					
2451	107.154373					
2451.6	72.4016037					
2452.2	92.674057					
2452.8	121.634697					
2453.4	88.3299561					
2454	79.6417694					
2454.6	82.5378265					
2455.2	114.394539					
2455.8	101.362251					
2456.4	89.7779846					
2457	81.089798					
2457.6	95.5701141					
2458.2	94.1220856					
2458.8	79.6417694					
2459.4	108.602409					
2460	81.089798					
2460.6	101.362251					
2461.2	105.706345					
2461.8	60.8173485					
2462.4	105.706345					
2463	108.602409					
2463.6	98.4661789					
2464.2	99.9142151					
2464.8	75.2976685					
2465.4	82.5378265					
2466	81.089798					
2466.6	95.5701141					
2467.2	94.1220856					
2467.8	99.9142151					
2468.4	101.362251					
2469	88.3299561					
2469.6	88.3299561					
2470.2	99.9142151					
2470.8	82.5378265					
2471.4	89.7779846					
2472	104.258308					
2472.6	86.8819275					
2473.2	82.5378265					
2473.8	98.4661789					
2474.4	91.2260208					
2475	82.5378265					
2475.6	104.258308					
2476.2	114.394539					
2476.8	92.674057					
2477.4	111.498466					
2478	92.674057					
2478.6	85.4338913					
2479.2	97.0181503					
2479.8	99.9142151					
2480.4	75.2976685					
2481	75.2976685					
2481.6	117.290604					
2482.2	85.4338913					
2482.8	94.1220856					
2483.4	78.1937332					
2484	81.089798					
2484.6	110.050438					
2485.2	85.4338913					
2485.8	81.089798					
2486.4	91.2260208					
2487	89.7779846					
2487.6	62.2653809					
2488.2	114.394539					
2488.8	85.4338913					
2489.4	69.5055389					
2490	72.4016037					
2490.6	94.1220856					
2491.2	91.2260208					
2491.8	94.1220856					
2492.4	91.2260208					
2493	88.3299561					
2493.6	68.0575104					
2494.2	89.7779846					
2494.8	89.7779846					
2495.4	101.362251					
2496	101.362251					
2496.6	118.738625					
2497.2	94.1220856					
2497.8	82.5378265					
2498.4	86.8819275					
2499	86.8819275					
2499.6	88.3299561					
2500.2	101.362251					
2500.8	92.674057					
2501.4	92.674057					
2502	72.4016037					
2502.6	115.842567					
2503.2	78.1937332					
2503.8	95.5701141					
2504.4	95.5701141					
2505	85.4338913					
2505.6	92.674057					
2506.2	83.9858627					
2506.8	105.706345					
2507.4	86.8819275					
2508	76.7457047					
2508.6	99.9142151					
2509.2	114.394539					
2509.8	101.362251					
2510.4	97.0181503					
2511	85.4338913					
2511.6	88.3299561					
2512.2	92.674057					
2512.8	108.602409					
2513.4	85.4338913					
2514	105.706345					
2514.6	88.3299561					
2515.2	88.3299561					
2515.8	86.8819275					
2516.4	97.0181503					
2517	76.7457047					
2517.6	86.8819275					
2518.2	97.0181503					
2518.8	83.9858627					
2519.4	75.2976685					
2520	82.5378265					
2520.6	73.8496323					
2521.2	68.0575104					
2521.8	86.8819275					
2522.4	81.089798					
2523	88.3299561					
2523.6	97.0181503					
2524.2	101.362251					
2524.8	89.7779846					
2525.4	110.050438					
2526	83.9858627					
2526.6	76.7457047					
2527.2	94.1220856					
2527.8	78.1937332					
2528.4	91.2260208					
2529	85.4338913					
2529.6	95.5701141					
2530.2	89.7779846					
2530.8	82.5378265					
2531.4	70.9535751					
2532	99.9142151					
2532.6	88.3299561					
2533.2	98.4661789					
2533.8	101.362251					
2534.4	95.5701141					
2535	79.6417694					
2535.6	107.154373					
2536.2	79.6417694					
2536.8	72.4016037					
2537.4	69.5055389					
2538	70.9535751					
2538.6	78.1937332					
2539.2	85.4338913					
2539.8	73.8496323					
2540.4	69.5055389					
2541	83.9858627					
2541.6	95.5701141					
2542.2	78.1937332					
2542.8	89.7779846					
2543.4	101.362251					
2544	85.4338913					
2544.6	97.0181503					
2545.2	86.8819275					
2545.8	88.3299561					
2546.4	66.6094742					
2547	83.9858627					
2547.6	78.1937332					
2548.2	82.5378265					
2548.8	81.089798					
2549.4	89.7779846					
2550	69.5055389					
2550.6	82.5378265					
2551.2	91.2260208					
2551.8	94.1220856					
2552.4	94.1220856					
2553	79.6417694					
2553.6	104.258308					
2554.2	81.089798					
2554.8	88.3299561					
2555.4	73.8496323					
2556	95.5701141					
2556.6	66.6094742					
2557.2	76.7457047					
2557.8	75.2976685					
2558.4	91.2260208					
2559	91.2260208					
2559.6	86.8819275					
2560.2	104.258308					
2560.8	78.1937332					
2561.4	81.089798					
2562	88.3299561					
2562.6	82.5378265					
2563.2	78.1937332					
2563.8	75.2976685					
2564.4	81.089798					
2565	75.2976685					
2565.6	72.4016037					
2566.2	76.7457047					
2566.8	88.3299561					
2567.4	83.9858627					
2568	99.9142151					
2568.6	89.7779846					
2569.2	57.9212837					
2569.8	78.1937332					
2570.4	83.9858627					
2571	86.8819275					
2571.6	95.5701141					
2572.2	89.7779846					
2572.8	107.154373					
2573.4	91.2260208					
2574	79.6417694					
2574.6	82.5378265					
2575.2	82.5378265					
2575.8	81.089798					
2576.4	79.6417694					
2577	68.0575104					
2577.6	98.4661789					
2578.2	75.2976685					
2578.8	86.8819275					
2579.4	69.5055389					
2580	91.2260208					
2580.6	88.3299561					
2581.2	102.810272					
2581.8	92.674057					
2582.4	92.674057					
2583	95.5701141					
2583.6	91.2260208					
2584.2	69.5055389					
2584.8	88.3299561					
2585.4	81.089798					
2586	88.3299561					
2586.6	79.6417694					
2587.2	68.0575104					
2587.8	81.089798					
2588.4	78.1937332					
2589	88.3299561					
2589.6	78.1937332					
2590.2	86.8819275					
2590.8	79.6417694					
2591.4	89.7779846					
2592	88.3299561					
2592.6	89.7779846					
2593.2	79.6417694					
2593.8	69.5055389					
2594.4	79.6417694					
2595	82.5378265					
2595.6	85.4338913					
2596.2	83.9858627					
2596.8	81.089798					
2597.4	86.8819275					
2598	86.8819275					
2598.6	65.161438					
2599.2	86.8819275					
2599.8	83.9858627					
2600.4	65.161438					
2601	85.4338913					
2601.6	73.8496323					
2602.2	91.2260208					
2602.8	82.5378265					
2603.4	88.3299561					
2604	79.6417694					
2604.6	91.2260208					
2605.2	79.6417694					
2605.8	94.1220856					
2606.4	83.9858627					
2607	85.4338913					
2607.6	83.9858627					
2608.2	63.7134094					
2608.8	75.2976685					
2609.4	86.8819275					
2610	69.5055389					
2610.6	79.6417694					
2611.2	91.2260208					
2611.8	89.7779846					
2612.4	89.7779846					
2613	65.161438					
2613.6	88.3299561					
2614.2	85.4338913					
2614.8	97.0181503					
2615.4	83.9858627					
2616	76.7457047					
2616.6	89.7779846					
2617.2	104.258308					
2617.8	69.5055389					
2618.4	72.4016037					
2619	66.6094742					
2619.6	76.7457047					
2620.2	63.7134094					
2620.8	73.8496323					
2621.4	82.5378265					
2622	66.6094742					
2622.6	75.2976685					
2623.2	78.1937332					
2623.8	69.5055389					
2624.4	73.8496323					
2625	75.2976685					
2625.6	68.0575104					
2626.2	94.1220856					
2626.8	86.8819275					
2627.4	75.2976685					
2628	78.1937332					
2628.6	81.089798					
2629.2	104.258308					
2629.8	72.4016037					
2630.4	94.1220856					
2631	78.1937332					
2631.6	66.6094742					
2632.2	65.161438					
2632.8	95.5701141					
2633.4	70.9535751					
2634	85.4338913					
2634.6	66.6094742					
2635.2	94.1220856					
2635.8	70.9535751					
2636.4	85.4338913					
2637	72.4016037					
2637.6	86.8819275					
2638.2	65.161438					
2638.8	76.7457047					
2639.4	92.674057					
2640	72.4016037					
2640.6	68.0575104					
2641.2	99.9142151					
2641.8	69.5055389					
2642.4	70.9535751					
2643	83.9858627					
2643.6	85.4338913					
2644.2	75.2976685					
2644.8	94.1220856					
2645.4	95.5701141					
2646	59.3693123					
2646.6	85.4338913					
2647.2	68.0575104					
2647.8	50.6811256					
2648.4	70.9535751					
2649	66.6094742					
2649.6	72.4016037					
2650.2	72.4016037					
2650.8	72.4016037					
2651.4	88.3299561					
2652	94.1220856					
2652.6	73.8496323					
2653.2	66.6094742					
2653.8	88.3299561					
2654.4	72.4016037					
2655	83.9858627					
2655.6	102.810272					
2656.2	86.8819275					
2656.8	66.6094742					
2657.4	86.8819275					
2658	88.3299561					
2658.6	78.1937332					
2659.2	65.161438					
2659.8	69.5055389					
2660.4	79.6417694					
2661	68.0575104					
2661.6	66.6094742					
2662.2	70.9535751					
2662.8	72.4016037					
2663.4	97.0181503					
2664	83.9858627					
2664.6	89.7779846					
2665.2	85.4338913					
2665.8	59.3693123					
2666.4	82.5378265					
2667	98.4661789					
2667.6	75.2976685					
2668.2	98.4661789					
2668.8	57.9212837					
2669.4	66.6094742					
2670	76.7457047					
2670.6	79.6417694					
2671.2	82.5378265					
2671.8	75.2976685					
2672.4	78.1937332					
2673	62.2653809					
2673.6	83.9858627					
2674.2	89.7779846					
2674.8	89.7779846					
2675.4	76.7457047					
2676	82.5378265					
2676.6	59.3693123					
2677.2	55.025219					
2677.8	81.089798					
2678.4	72.4016037					
2679	86.8819275					
2679.6	68.0575104					
2680.2	83.9858627					
2680.8	89.7779846					
2681.4	66.6094742					
2682	83.9858627					
2682.6	86.8819275					
2683.2	81.089798					
2683.8	50.6811256					
2684.4	73.8496323					
2685	73.8496323					
2685.6	75.2976685					
2686.2	59.3693123					
2686.8	63.7134094					
2687.4	60.8173485					
2688	72.4016037					
2688.6	68.0575104					
2689.2	65.161438					
2689.8	76.7457047					
2690.4	88.3299561					
2691	86.8819275					
2691.6	63.7134094					
2692.2	72.4016037					
2692.8	89.7779846					
2693.4	73.8496323					
2694	59.3693123					
2694.6	82.5378265					
2695.2	69.5055389					
2695.8	88.3299561					
2696.4	62.2653809					
2697	95.5701141					
2697.6	66.6094742					
2698.2	89.7779846					
2698.8	62.2653809					
2699.4	59.3693123					
2700	79.6417694					
2700.6	63.7134094					
2701.2	85.4338913					
2701.8	73.8496323					
2702.4	60.8173485					
2703	81.089798					
2703.6	70.9535751					
2704.2	70.9535751					
2704.8	75.2976685					
2705.4	59.3693123					
2706	73.8496323					
2706.6	86.8819275					
2707.2	70.9535751					
2707.8	83.9858627					
2708.4	99.9142151					
2709	56.4732513					
2709.6	57.9212837					
2710.2	76.7457047					
2710.8	72.4016037					
2711.4	62.2653809					
2712	79.6417694					
2712.6	70.9535751					
2713.2	75.2976685					
2713.8	79.6417694					
2714.4	82.5378265					
2715	76.7457047					
2715.6	63.7134094					
2716.2	60.8173485					
2716.8	73.8496323					
2717.4	81.089798					
2718	75.2976685					
2718.6	70.9535751					
2719.2	86.8819275					
2719.8	69.5055389					
2720.4	59.3693123					
2721	91.2260208					
2721.6	68.0575104					
2722.2	73.8496323					
2722.8	85.4338913					
2723.4	57.9212837					
2724	70.9535751					
2724.6	92.674057					
2725.2	65.161438					
2725.8	68.0575104					
2726.4	76.7457047					
2727	65.161438					
2727.6	76.7457047					
2728.2	82.5378265					
2728.8	60.8173485					
2729.4	63.7134094					
2730	85.4338913					
2730.6	98.4661789					
2731.2	85.4338913					
2731.8	73.8496323					
2732.4	62.2653809					
2733	79.6417694					
2733.6	78.1937332					
2734.2	69.5055389					
2734.8	70.9535751					
2735.4	66.6094742					
2736	60.8173485					
2736.6	79.6417694					
2737.2	85.4338913					
2737.8	70.9535751					
2738.4	76.7457047					
2739	91.2260208					
2739.6	62.2653809					
2740.2	68.0575104					
2740.8	70.9535751					
2741.4	73.8496323					
2742	81.089798					
2742.6	60.8173485					
2743.2	83.9858627					
2743.8	66.6094742					
2744.4	56.4732513					
2745	65.161438					
2745.6	85.4338913					
2746.2	62.2653809					
2746.8	66.6094742					
2747.4	46.3370285					
2748	72.4016037					
2748.6	65.161438					
2749.2	72.4016037					
2749.8	79.6417694					
2750.4	57.9212837					
2751	88.3299561					
2751.6	63.7134094					
2752.2	69.5055389					
2752.8	65.161438					
2753.4	59.3693123					
2754	85.4338913					
2754.6	62.2653809					
2755.2	73.8496323					
2755.8	68.0575104					
2756.4	63.7134094					
2757	59.3693123					
2757.6	60.8173485					
2758.2	70.9535751					
2758.8	65.161438					
2759.4	52.1291542					
2760	69.5055389					
2760.6	39.0968666					
2761.2	57.9212837					
2761.8	65.161438					
2762.4	57.9212837					
2763	62.2653809					
2763.6	69.5055389					
2764.2	81.089798					
2764.8	57.9212837					
2765.4	69.5055389					
2766	65.161438					
2766.6	79.6417694					
2767.2	68.0575104					
2767.8	66.6094742					
2768.4	72.4016037					
2769	57.9212837					
2769.6	72.4016037					
2770.2	76.7457047					
2770.8	72.4016037					
2771.4	76.7457047					
2772	92.674057					
2772.6	47.7850571					
2773.2	76.7457047					
2773.8	85.4338913					
2774.4	65.161438					
2775	62.2653809					
2775.6	82.5378265					
2776.2	59.3693123					
2776.8	60.8173485					
2777.4	76.7457047					
2778	46.3370285					
2778.6	60.8173485					
2779.2	81.089798					
2779.8	70.9535751					
2780.4	82.5378265					
2781	73.8496323					
2781.6	57.9212837					
2782.2	70.9535751					
2782.8	65.161438					
2783.4	72.4016037					
2784	66.6094742					
2784.6	65.161438					
2785.2	70.9535751					
2785.8	68.0575104					
2786.4	57.9212837					
2787	69.5055389					
2787.6	56.4732513					
2788.2	62.2653809					
2788.8	55.025219					
2789.4	55.025219					
2790	65.161438					
2790.6	66.6094742					
2791.2	66.6094742					
2791.8	60.8173485					
2792.4	72.4016037					
2793	73.8496323					
2793.6	63.7134094					
2794.2	57.9212837					
2794.8	66.6094742					
2795.4	79.6417694					
2796	81.089798					
2796.6	56.4732513					
2797.2	68.0575104					
2797.8	66.6094742					
2798.4	66.6094742					
2799	57.9212837					
2799.6	63.7134094					
2800.2	65.161438					
2800.8	75.2976685					
2801.4	63.7134094					
2802	50.6811256					
2802.6	57.9212837					
2803.2	63.7134094					
2803.8	65.161438					
2804.4	70.9535751					
2805	69.5055389					
2805.6	86.8819275					
2806.2	52.1291542					
2806.8	62.2653809					
2807.4	72.4016037					
2808	85.4338913					
2808.6	57.9212837					
2809.2	86.8819275					
2809.8	62.2653809					
2810.4	78.1937332					
2811	50.6811256					
2811.6	72.4016037					
2812.2	63.7134094					
2812.8	65.161438					
2813.4	76.7457047					
2814	57.9212837					
2814.6	62.2653809					
2815.2	78.1937332					
2815.8	69.5055389					
2816.4	59.3693123					
2817	88.3299561					
2817.6	62.2653809					
2818.2	66.6094742					
2818.8	88.3299561					
2819.4	69.5055389					
2820	62.2653809					
2820.6	65.161438					
2821.2	62.2653809					
2821.8	55.025219					
2822.4	75.2976685					
2823	57.9212837					
2823.6	53.5771866					
2824.2	81.089798					
2824.8	73.8496323					
2825.4	49.2330894					
2826	69.5055389					
2826.6	86.8819275					
2827.2	62.2653809					
2827.8	62.2653809					
2828.4	50.6811256					
2829	66.6094742					
2829.6	72.4016037					
2830.2	76.7457047					
2830.8	68.0575104					
2831.4	72.4016037					
2832	75.2976685					
2832.6	60.8173485					
2833.2	78.1937332					
2833.8	50.6811256					
2834.4	65.161438					
2835	66.6094742					
2835.6	72.4016037					
2836.2	70.9535751					
2836.8	65.161438					
2837.4	69.5055389					
2838	50.6811256					
2838.6	63.7134094					
2839.2	56.4732513					
2839.8	85.4338913					
2840.4	57.9212837					
2841	66.6094742					
2841.6	52.1291542					
2842.2	49.2330894					
2842.8	60.8173485					
2843.4	78.1937332					
2844	57.9212837					
2844.6	52.1291542					
2845.2	66.6094742					
2845.8	69.5055389					
2846.4	83.9858627					
2847	66.6094742					
2847.6	62.2653809					
2848.2	70.9535751					
2848.8	75.2976685					
2849.4	72.4016037					
2850	62.2653809					
2850.6	72.4016037					
2851.2	53.5771866					
2851.8	62.2653809					
2852.4	72.4016037					
2853	69.5055389					
2853.6	56.4732513					
2854.2	79.6417694					
2854.8	65.161438					
2855.4	59.3693123					
2856	60.8173485					
2856.6	75.2976685					
2857.2	75.2976685					
2857.8	69.5055389					
2858.4	72.4016037					
2859	57.9212837					
2859.6	56.4732513					
2860.2	69.5055389					
2860.8	63.7134094					
2861.4	52.1291542					
2862	44.8889923					
2862.6	60.8173485					
2863.2	82.5378265					
2863.8	59.3693123					
2864.4	43.4409637					
2865	60.8173485					
2865.6	65.161438					
2866.2	59.3693123					
2866.8	73.8496323					
2867.4	52.1291542					
2868	70.9535751					
2868.6	69.5055389					
2869.2	46.3370285					
2869.8	62.2653809					
2870.4	62.2653809					
2871	57.9212837					
2871.6	60.8173485					
2872.2	76.7457047					
2872.8	63.7134094					
2873.4	70.9535751					
2874	62.2653809					
2874.6	72.4016037					
2875.2	63.7134094					
2875.8	55.025219					
2876.4	60.8173485					
2877	66.6094742					
2877.6	59.3693123					
2878.2	60.8173485					
2878.8	57.9212837					
2879.4	50.6811256					
2880	81.089798					
2880.6	69.5055389					
2881.2	85.4338913					
2881.8	46.3370285					
2882.4	56.4732513					
2883	73.8496323					
2883.6	47.7850571					
2884.2	56.4732513					
2884.8	72.4016037					
2885.4	50.6811256					
2886	72.4016037					
2886.6	60.8173485					
2887.2	46.3370285					
2887.8	65.161438					
2888.4	59.3693123					
2889	59.3693123					
2889.6	68.0575104					
2890.2	47.7850571					
2890.8	70.9535751					
2891.4	56.4732513					
2892	59.3693123					
2892.6	70.9535751					
2893.2	70.9535751					
2893.8	55.025219					
2894.4	53.5771866					
2895	65.161438					
2895.6	52.1291542					
2896.2	55.025219					
2896.8	82.5378265					
2897.4	75.2976685					
2898	44.8889923					
2898.6	60.8173485					
2899.2	68.0575104					
2899.8	63.7134094					
2900.4	63.7134094					
2901	52.1291542					
2901.6	59.3693123					
2902.2	72.4016037					
2902.8	53.5771866					
2903.4	53.5771866					
2904	73.8496323					
2904.6	65.161438					
2905.2	53.5771866					
2905.8	81.089798					
2906.4	57.9212837					
2907	49.2330894					
2907.6	73.8496323					
2908.2	72.4016037					
2908.8	56.4732513					
2909.4	55.025219					
2910	47.7850571					
2910.6	62.2653809					
2911.2	41.9929314					
2911.8	56.4732513					
2912.4	59.3693123					
2913	50.6811256					
2913.6	56.4732513					
2914.2	78.1937332					
2914.8	59.3693123					
2915.4	57.9212837					
2916	60.8173485					
2916.6	59.3693123					
2917.2	57.9212837					
2917.8	53.5771866					
2918.4	53.5771866					
2919	46.3370285					
2919.6	59.3693123					
2920.2	79.6417694					
2920.8	59.3693123					
2921.4	55.025219					
2922	50.6811256					
2922.6	66.6094742					
2923.2	60.8173485					
2923.8	66.6094742					
2924.4	44.8889923					
2925	40.544899					
2925.6	59.3693123					
2926.2	59.3693123					
2926.8	43.4409637					
2927.4	68.0575104					
2928	66.6094742					
2928.6	63.7134094					
2929.2	62.2653809					
2929.8	56.4732513					
2930.4	76.7457047					
2931	59.3693123					
2931.6	76.7457047					
2932.2	57.9212837					
2932.8	60.8173485					
2933.4	57.9212837					
2934	57.9212837					
2934.6	66.6094742					
2935.2	57.9212837					
2935.8	69.5055389					
2936.4	56.4732513					
2937	55.025219					
2937.6	50.6811256					
2938.2	59.3693123					
2938.8	52.1291542					
2939.4	62.2653809					
2940	75.2976685					
2940.6	55.025219					
2941.2	52.1291542					
2941.8	59.3693123					
2942.4	59.3693123					
2943	56.4732513					
2943.6	68.0575104					
2944.2	52.1291542					
2944.8	56.4732513					
2945.4	66.6094742					
2946	76.7457047					
2946.6	53.5771866					
2947.2	60.8173485					
2947.8	55.025219					
2948.4	63.7134094					
2949	52.1291542					
2949.6	59.3693123					
2950.2	59.3693123					
2950.8	50.6811256					
2951.4	53.5771866					
2952	53.5771866					
2952.6	68.0575104					
2953.2	57.9212837					
2953.8	49.2330894					
2954.4	49.2330894					
2955	43.4409637					
2955.6	53.5771866					
2956.2	49.2330894					
2956.8	60.8173485					
2957.4	59.3693123					
2958	60.8173485					
2958.6	43.4409637					
2959.2	65.161438					
2959.8	60.8173485					
2960.4	44.8889923					
2961	59.3693123					
2961.6	43.4409637					
2962.2	55.025219					
2962.8	49.2330894					
2963.4	49.2330894					
2964	52.1291542					
2964.6	52.1291542					
2965.2	44.8889923					
2965.8	57.9212837					
2966.4	41.9929314					
2967	49.2330894					
2967.6	44.8889923					
2968.2	55.025219					
2968.8	65.161438					
2969.4	56.4732513					
2970	82.5378265					
2970.6	55.025219					
2971.2	60.8173485					
2971.8	50.6811256					
2972.4	62.2653809					
2973	46.3370285					
2973.6	46.3370285					
2974.2	55.025219					
2974.8	55.025219					
2975.4	37.6488342					
2976	62.2653809					
2976.6	79.6417694					
2977.2	57.9212837					
2977.8	37.6488342					
2978.4	62.2653809					
2979	73.8496323					
2979.6	52.1291542					
2980.2	52.1291542					
2980.8	60.8173485					
2981.4	47.7850571					
2982	52.1291542					
2982.6	47.7850571					
2983.2	47.7850571					
2983.8	55.025219					
2984.4	66.6094742					
2985	60.8173485					
2985.6	41.9929314					
2986.2	53.5771866					
2986.8	60.8173485					
2987.4	44.8889923					
2988	68.0575104					
2988.6	69.5055389					
2989.2	56.4732513					
2989.8	62.2653809					
2990.4	69.5055389					
2991	59.3693123					
2991.6	68.0575104					
2992.2	57.9212837					
2992.8	60.8173485					
2993.4	59.3693123					
2994	55.025219					
2994.6	60.8173485					
2995.2	56.4732513					
2995.8	60.8173485					
2996.4	53.5771866					
2997	68.0575104					
2997.6	55.025219					
2998.2	63.7134094					
2998.8	63.7134094					
2999.4	49.2330894					
3000	66.6094742					
3000.6	55.025219					
3001.2	41.9929314					
3001.8	65.161438					
3002.4	62.2653809					
3003	72.4016037					
3003.6	47.7850571					
3004.2	72.4016037					
3004.8	55.025219					
3005.4	65.161438					
3006	56.4732513					
3006.6	52.1291542					
3007.2	68.0575104					
3007.8	66.6094742					
3008.4	60.8173485					
3009	39.0968666					
3009.6	68.0575104					
3010.2	46.3370285					
3010.8	60.8173485					
3011.4	47.7850571					
3012	63.7134094					
3012.6	68.0575104					
3013.2	40.544899					
3013.8	56.4732513					
3014.4	56.4732513					
3015	60.8173485					
3015.6	65.161438					
3016.2	66.6094742					
3016.8	59.3693123					
3017.4	70.9535751					
3018	66.6094742					
3018.6	59.3693123					
3019.2	49.2330894					
3019.8	57.9212837					
3020.4	59.3693123					
3021	55.025219					
3021.6	49.2330894					
3022.2	52.1291542					
3022.8	50.6811256					
3023.4	55.025219					
3024	46.3370285					
3024.6	55.025219					
3025.2	40.544899					
3025.8	47.7850571					
3026.4	59.3693123					
3027	63.7134094					
3027.6	53.5771866					
3028.2	50.6811256					
3028.8	46.3370285					
3029.4	63.7134094					
3030	60.8173485					
3030.6	53.5771866					
3031.2	62.2653809					
3031.8	62.2653809					
3032.4	63.7134094					
3033	63.7134094					
3033.6	56.4732513					
3034.2	73.8496323					
3034.8	47.7850571					
3035.4	55.025219					
3036	62.2653809					
3036.6	52.1291542					
3037.2	43.4409637					
3037.8	47.7850571					
3038.4	40.544899					
3039	56.4732513					
3039.6	72.4016037					
3040.2	62.2653809					
3040.8	53.5771866					
3041.4	50.6811256					
3042	59.3693123					
3042.6	63.7134094					
3043.2	55.025219					
3043.8	60.8173485					
3044.4	52.1291542					
3045	46.3370285					
3045.6	50.6811256					
3046.2	73.8496323					
3046.8	49.2330894					
3047.4	63.7134094					
3048	43.4409637					
3048.6	57.9212837					
3049.2	46.3370285					
3049.8	34.7527695					
3050.4	44.8889923					
3051	57.9212837					
3051.6	55.025219					
3052.2	52.1291542					
3052.8	50.6811256					
3053.4	52.1291542					
3054	65.161438					
3054.6	40.544899					
3055.2	43.4409637					
3055.8	49.2330894					
3056.4	44.8889923					
3057	56.4732513					
3057.6	50.6811256					
3058.2	59.3693123					
3058.8	53.5771866					
3059.4	62.2653809					
3060	43.4409637					
3060.6	55.025219					
3061.2	52.1291542					
3061.8	62.2653809					
3062.4	49.2330894					
3063	57.9212837					
3063.6	59.3693123					
3064.2	57.9212837					
3064.8	34.7527695					
3065.4	55.025219					
3066	50.6811256					
3066.6	53.5771866					
3067.2	56.4732513					
3067.8	39.0968666					
3068.4	41.9929314					
3069	57.9212837					
3069.6	72.4016037					
3070.2	56.4732513					
3070.8	56.4732513					
3071.4	70.9535751					
3072	39.0968666					
3072.6	56.4732513					
3073.2	53.5771866					
3073.8	41.9929314					
3074.4	50.6811256					
3075	43.4409637					
3075.6	52.1291542					
3076.2	56.4732513					
3076.8	62.2653809					
3077.4	59.3693123					
3078	52.1291542					
3078.6	31.8567047					
3079.2	49.2330894					
3079.8	52.1291542					
3080.4	44.8889923					
3081	53.5771866					
3081.6	43.4409637					
3082.2	55.025219					
3082.8	34.7527695					
3083.4	50.6811256					
3084	46.3370285					
3084.6	27.5126095					
3085.2	57.9212837					
3085.8	66.6094742					
3086.4	46.3370285					
3087	57.9212837					
3087.6	63.7134094					
3088.2	52.1291542					
3088.8	55.025219					
3089.4	49.2330894					
3090	62.2653809					
3090.6	40.544899					
3091.2	73.8496323					
3091.8	44.8889923					
3092.4	44.8889923					
3093	40.544899					
3093.6	56.4732513					
3094.2	50.6811256					
3094.8	57.9212837					
3095.4	37.6488342					
3096	55.025219					
3096.6	55.025219					
3097.2	47.7850571					
3097.8	55.025219					
3098.4	47.7850571					
3099	52.1291542					
3099.6	40.544899					
3100.2	39.0968666					
3100.8	53.5771866					
3101.4	56.4732513					
3102	40.544899					
3102.6	40.544899					
3103.2	62.2653809					
3103.8	53.5771866					
3104.4	68.0575104					
3105	34.7527695					
3105.6	47.7850571					
3106.2	49.2330894					
3106.8	57.9212837					
3107.4	47.7850571					
3108	41.9929314					
3108.6	44.8889923					
3109.2	56.4732513					
3109.8	47.7850571					
3110.4	60.8173485					
3111	44.8889923					
3111.6	63.7134094					
3112.2	50.6811256					
3112.8	63.7134094					
3113.4	55.025219					
3114	50.6811256					
3114.6	57.9212837					
3115.2	49.2330894					
3115.8	57.9212837					
3116.4	57.9212837					
3117	49.2330894					
3117.6	73.8496323					
3118.2	60.8173485					
3118.8	50.6811256					
3119.4	49.2330894					
3120	59.3693123					
3120.6	52.1291542					
3121.2	57.9212837					
3121.8	52.1291542					
3122.4	36.2008018					
3123	47.7850571					
3123.6	50.6811256					
3124.2	66.6094742					
3124.8	47.7850571					
3125.4	53.5771866					
3126	26.0645771					
3126.6	52.1291542					
3127.2	52.1291542					
3127.8	40.544899					
3128.4	41.9929314					
3129	46.3370285					
3129.6	49.2330894					
3130.2	53.5771866					
3130.8	47.7850571					
3131.4	40.544899					
3132	44.8889923					
3132.6	56.4732513					
3133.2	60.8173485					
3133.8	31.8567047					
3134.4	41.9929314					
3135	50.6811256					
3135.6	55.025219					
3136.2	43.4409637					
3136.8	41.9929314					
3137.4	52.1291542					
3138	39.0968666					
3138.6	55.025219					
3139.2	47.7850571					
3139.8	53.5771866					
3140.4	47.7850571					
3141	65.161438					
3141.6	47.7850571					
3142.2	46.3370285					
3142.8	49.2330894					
3143.4	46.3370285					
3144	49.2330894					
3144.6	56.4732513					
3145.2	43.4409637					
3145.8	46.3370285					
3146.4	53.5771866					
3147	49.2330894					
3147.6	44.8889923					
3148.2	44.8889923					
3148.8	49.2330894					
3149.4	52.1291542					
3150	50.6811256					
3150.6	50.6811256					
3151.2	40.544899					
3151.8	39.0968666					
3152.4	65.161438					
3153	52.1291542					
3153.6	47.7850571					
3154.2	50.6811256					
3154.8	41.9929314					
3155.4	41.9929314					
3156	41.9929314					
3156.6	46.3370285					
3157.2	46.3370285					
3157.8	59.3693123					
3158.4	52.1291542					
3159	57.9212837					
3159.6	47.7850571					
3160.2	43.4409637					
3160.8	50.6811256					
3161.4	41.9929314					
3162	30.4086742					
3162.6	52.1291542					
3163.2	41.9929314					
3163.8	50.6811256					
3164.4	44.8889923					
3165	53.5771866					
3165.6	49.2330894					
3166.2	59.3693123					
3166.8	52.1291542					
3167.4	55.025219					
3168	50.6811256					
3168.6	60.8173485					
3169.2	36.2008018					
3169.8	46.3370285					
3170.4	55.025219					
3171	31.8567047					
3171.6	30.4086742					
3172.2	44.8889923					
3172.8	65.161438					
3173.4	55.025219					
3174	34.7527695					
3174.6	50.6811256					
3175.2	56.4732513					
3175.8	46.3370285					
3176.4	34.7527695					
3177	53.5771866					
3177.6	52.1291542					
3178.2	40.544899					
3178.8	56.4732513					
3179.4	56.4732513					
3180	63.7134094					
3180.6	57.9212837					
3181.2	49.2330894					
3181.8	49.2330894					
3182.4	44.8889923					
3183	56.4732513					
3183.6	55.025219					
3184.2	53.5771866					
3184.8	52.1291542					
3185.4	49.2330894					
3186	53.5771866					
3186.6	57.9212837					
3187.2	55.025219					
3187.8	52.1291542					
3188.4	34.7527695					
3189	46.3370285					
3189.6	55.025219					
3190.2	63.7134094					
3190.8	60.8173485					
3191.4	53.5771866					
3192	49.2330894					
3192.6	59.3693123					
3193.2	43.4409637					
3193.8	39.0968666					
3194.4	55.025219					
3195	52.1291542					
3195.6	63.7134094					
3196.2	50.6811256					
3196.8	49.2330894					
3197.4	43.4409637					
3198	40.544899					
3198.6	34.7527695					
3199.2	57.9212837					
3199.8	43.4409637					
3200.4	57.9212837					
3201	68.0575104					
3201.6	49.2330894					
3202.2	57.9212837					
3202.8	55.025219					
3203.4	34.7527695					
3204	47.7850571					
3204.6	34.7527695					
3205.2	49.2330894					
3205.8	44.8889923					
3206.4	47.7850571					
3207	33.3047371					
3207.6	50.6811256					
3208.2	49.2330894					
3208.8	57.9212837					
3209.4	52.1291542					
3210	44.8889923					
3210.6	44.8889923					
3211.2	43.4409637					
3211.8	40.544899					
3212.4	31.8567047					
3213	55.025219					
3213.6	33.3047371					
3214.2	33.3047371					
3214.8	33.3047371					
3215.4	50.6811256					
3216	50.6811256					
3216.6	56.4732513					
3217.2	56.4732513					
3217.8	46.3370285					
3218.4	46.3370285					
3219	34.7527695					
3219.6	44.8889923					
3220.2	46.3370285					
3220.8	39.0968666					
3221.4	49.2330894					
3222	43.4409637					
3222.6	40.544899					
3223.2	46.3370285					
3223.8	56.4732513					
3224.4	39.0968666					
3225	44.8889923					
3225.6	56.4732513					
3226.2	60.8173485					
3226.8	53.5771866					
3227.4	60.8173485					
3228	34.7527695					
3228.6	40.544899					
3229.2	59.3693123					
3229.8	36.2008018					
3230.4	49.2330894					
3231	28.9606419					
3231.6	59.3693123					
3232.2	46.3370285					
3232.8	55.025219					
3233.4	41.9929314					
3234	49.2330894					
3234.6	56.4732513					
3235.2	50.6811256					
3235.8	43.4409637					
3236.4	57.9212837					
3237	41.9929314					
3237.6	46.3370285					
3238.2	37.6488342					
3238.8	26.0645771					
3239.4	37.6488342					
3240	41.9929314					
3240.6	41.9929314					
3241.2	52.1291542					
3241.8	33.3047371					
3242.4	46.3370285					
3243	36.2008018					
3243.6	62.2653809					
3244.2	37.6488342					
3244.8	43.4409637					
3245.4	52.1291542					
3246	44.8889923					
3246.6	52.1291542					
3247.2	49.2330894					
3247.8	41.9929314					
3248.4	39.0968666					
3249	43.4409637					
3249.6	47.7850571					
3250.2	43.4409637					
3250.8	40.544899					
3251.4	41.9929314					
3252	46.3370285					
3252.6	44.8889923					
3253.2	41.9929314					
3253.8	37.6488342					
3254.4	47.7850571					
3255	63.7134094					
3255.6	50.6811256					
3256.2	43.4409637					
3256.8	50.6811256					
3257.4	47.7850571					
3258	44.8889923					
3258.6	63.7134094					
3259.2	55.025219					
3259.8	47.7850571					
3260.4	43.4409637					
3261	57.9212837					
3261.6	60.8173485					
3262.2	65.161438					
3262.8	36.2008018					
3263.4	46.3370285					
3264	41.9929314					
3264.6	34.7527695					
3265.2	46.3370285					
3265.8	47.7850571					
3266.4	41.9929314					
3267	44.8889923					
3267.6	43.4409637					
3268.2	39.0968666					
3268.8	40.544899					
3269.4	41.9929314					
3270	55.025219					
3270.6	60.8173485					
3271.2	40.544899					
3271.8	40.544899					
3272.4	49.2330894					
3273	33.3047371					
3273.6	62.2653809					
3274.2	39.0968666					
3274.8	30.4086742					
3275.4	57.9212837					
3276	50.6811256					
3276.6	33.3047371					
3277.2	46.3370285					
3277.8	39.0968666					
3278.4	43.4409637					
3279	53.5771866					
3279.6	46.3370285					
3280.2	49.2330894					
3280.8	47.7850571					
3281.4	31.8567047					
3282	41.9929314					
3282.6	49.2330894					
3283.2	60.8173485					
3283.8	44.8889923					
3284.4	40.544899					
3285	33.3047371					
3285.6	56.4732513					
3286.2	26.0645771					
3286.8	59.3693123					
3287.4	53.5771866					
3288	46.3370285					
3288.6	55.025219					
3289.2	49.2330894					
3289.8	39.0968666					
3290.4	46.3370285					
3291	39.0968666					
3291.6	28.9606419					
3292.2	41.9929314					
3292.8	55.025219					
3293.4	52.1291542					
3294	49.2330894					
3294.6	53.5771866					
3295.2	34.7527695					
3295.8	50.6811256					
3296.4	40.544899					
3297	37.6488342					
3297.6	49.2330894					
3298.2	65.161438					
3298.8	55.025219					
3299.4	55.025219					
3300	41.9929314					
3300.6	39.0968666					
3301.2	40.544899					
3301.8	39.0968666					
3302.4	34.7527695					
3303	49.2330894					
3303.6	43.4409637					
3304.2	50.6811256					
3304.8	40.544899					
3305.4	34.7527695					
3306	46.3370285					
3306.6	52.1291542					
3307.2	40.544899					
3307.8	52.1291542					
3308.4	44.8889923					
3309	46.3370285					
3309.6	37.6488342					
3310.2	47.7850571					
3310.8	55.025219					
3311.4	44.8889923					
3312	46.3370285					
3312.6	30.4086742					
3313.2	49.2330894					
3313.8	46.3370285					
3314.4	37.6488342					
3315	41.9929314					
3315.6	43.4409637					
3316.2	50.6811256					
3316.8	40.544899					
3317.4	39.0968666					
3318	37.6488342					
3318.6	53.5771866					
3319.2	62.2653809					
3319.8	43.4409637					
3320.4	33.3047371					
3321	36.2008018					
3321.6	49.2330894					
3322.2	49.2330894					
3322.8	43.4409637					
3323.4	27.5126095					
3324	49.2330894					
3324.6	43.4409637					
3325.2	36.2008018					
3325.8	31.8567047					
3326.4	41.9929314					
3327	33.3047371					
3327.6	47.7850571					
3328.2	39.0968666					
3328.8	40.544899					
3329.4	44.8889923					
3330	34.7527695					
3330.6	39.0968666					
3331.2	40.544899					
3331.8	30.4086742					
3332.4	47.7850571					
3333	55.025219					
3333.6	55.025219					
3334.2	43.4409637					
3334.8	52.1291542					
3335.4	43.4409637					
3336	40.544899					
3336.6	34.7527695					
3337.2	34.7527695					
3337.8	40.544899					
3338.4	62.2653809					
3339	47.7850571					
3339.6	46.3370285					
3340.2	41.9929314					
3340.8	62.2653809					
3341.4	31.8567047					
3342	59.3693123					
3342.6	33.3047371					
3343.2	39.0968666					
3343.8	39.0968666					
3344.4	40.544899					
3345	46.3370285					
3345.6	44.8889923					
3346.2	40.544899					
3346.8	31.8567047					
3347.4	52.1291542					
3348	50.6811256					
3348.6	40.544899					
3349.2	34.7527695					
3349.8	46.3370285					
3350.4	40.544899					
3351	57.9212837					
3351.6	30.4086742					
3352.2	57.9212837					
3352.8	36.2008018					
3353.4	39.0968666					
3354	41.9929314					
3354.6	39.0968666					
3355.2	27.5126095					
3355.8	44.8889923					
3356.4	55.025219					
3357	56.4732513					
3357.6	50.6811256					
3358.2	40.544899					
3358.8	56.4732513					
3359.4	56.4732513					
3360	37.6488342					
3360.6	34.7527695					
3361.2	34.7527695					
3361.8	41.9929314					
3362.4	43.4409637					
3363	34.7527695					
3363.6	36.2008018					
3364.2	41.9929314					
3364.8	37.6488342					
3365.4	44.8889923					
3366	41.9929314					
3366.6	33.3047371					
3367.2	60.8173485					
3367.8	40.544899					
3368.4	34.7527695					
3369	40.544899					
3369.6	36.2008018					
3370.2	34.7527695					
3370.8	56.4732513					
3371.4	52.1291542					
3372	40.544899					
3372.6	47.7850571					
3373.2	43.4409637					
3373.8	33.3047371					
3374.4	39.0968666					
3375	53.5771866					
3375.6	49.2330894					
3376.2	36.2008018					
3376.8	41.9929314					
3377.4	44.8889923					
3378	46.3370285					
3378.6	34.7527695					
3379.2	31.8567047					
3379.8	47.7850571					
3380.4	33.3047371					
3381	36.2008018					
3381.6	62.2653809					
3382.2	33.3047371					
3382.8	41.9929314					
3383.4	41.9929314					
3384	40.544899					
3384.6	27.5126095					
3385.2	46.3370285					
3385.8	50.6811256					
3386.4	40.544899					
3387	37.6488342					
3387.6	46.3370285					
3388.2	62.2653809					
3388.8	60.8173485					
3389.4	30.4086742					
3390	33.3047371					
3390.6	52.1291542					
3391.2	28.9606419					
3391.8	41.9929314					
3392.4	31.8567047					
3393	63.7134094					
3393.6	30.4086742					
3394.2	52.1291542					
3394.8	46.3370285					
3395.4	33.3047371					
3396	46.3370285					
3396.6	49.2330894					
3397.2	33.3047371					
3397.8	27.5126095					
3398.4	37.6488342					
3399	55.025219					
3399.6	73.8496323					
3400.2	36.2008018					
3400.8	28.9606419					
3401.4	21.7204819					
3402	47.7850571					
3402.6	31.8567047					
3403.2	43.4409637					
3403.8	52.1291542					
3404.4	49.2330894					
3405	43.4409637					
3405.6	62.2653809					
3406.2	39.0968666					
3406.8	46.3370285					
3407.4	44.8889923					
3408	43.4409637					
3408.6	40.544899					
3409.2	55.025219					
3409.8	37.6488342					
3410.4	46.3370285					
3411	34.7527695					
3411.6	36.2008018					
3412.2	37.6488342					
3412.8	33.3047371					
3413.4	36.2008018					
3414	46.3370285					
3414.6	33.3047371					
3415.2	39.0968666					
3415.8	34.7527695					
3416.4	37.6488342					
3417	57.9212837					
3417.6	56.4732513					
3418.2	41.9929314					
3418.8	36.2008018					
3419.4	30.4086742					
3420	30.4086742					
3420.6	39.0968666					
3421.2	37.6488342					
3421.8	33.3047371					
3422.4	55.025219					
3423	43.4409637					
3423.6	30.4086742					
3424.2	34.7527695					
3424.8	40.544899					
3425.4	49.2330894					
3426	39.0968666					
3426.6	41.9929314					
3427.2	47.7850571					
3427.8	34.7527695					
3428.4	34.7527695					
3429	36.2008018					
3429.6	34.7527695					
3430.2	24.6165447					
3430.8	43.4409637					
3431.4	40.544899					
3432	34.7527695					
3432.6	43.4409637					
3433.2	44.8889923					
3433.8	39.0968666					
3434.4	47.7850571					
3435	43.4409637					
3435.6	31.8567047					
3436.2	50.6811256					
3436.8	34.7527695					
3437.4	53.5771866					
3438	50.6811256					
3438.6	46.3370285					
3439.2	39.0968666					
3439.8	36.2008018					
3440.4	37.6488342					
3441	50.6811256					
3441.6	31.8567047					
3442.2	46.3370285					
3442.8	46.3370285					
3443.4	23.1685143					
3444	36.2008018					
3444.6	37.6488342					
3445.2	50.6811256					
3445.8	47.7850571					
3446.4	43.4409637					
3447	31.8567047					
3447.6	43.4409637					
3448.2	37.6488342					
3448.8	26.0645771					
3449.4	36.2008018					
3450	43.4409637					
3450.6	40.544899					
3451.2	69.5055389					
3451.8	50.6811256					
3452.4	53.5771866					
3453	31.8567047					
3453.6	36.2008018					
3454.2	44.8889923					
3454.8	30.4086742					
3455.4	46.3370285					
3456	28.9606419					
3456.6	31.8567047					
3457.2	49.2330894					
3457.8	34.7527695					
3458.4	43.4409637					
3459	37.6488342					
3459.6	26.0645771					
3460.2	17.3763847					
3460.8	39.0968666					
3461.4	43.4409637					
3462	37.6488342					
3462.6	59.3693123					
3463.2	39.0968666					
3463.8	34.7527695					
3464.4	39.0968666					
3465	39.0968666					
3465.6	60.8173485					
3466.2	37.6488342					
3466.8	27.5126095					
3467.4	34.7527695					
3468	46.3370285					
3468.6	46.3370285					
3469.2	30.4086742					
3469.8	30.4086742					
3470.4	37.6488342					
3471	28.9606419					
3471.6	34.7527695					
3472.2	34.7527695					
3472.8	40.544899					
3473.4	39.0968666					
3474	37.6488342					
3474.6	26.0645771					
3475.2	46.3370285					
3475.8	28.9606419					
3476.4	40.544899					
3477	41.9929314					
3477.6	39.0968666					
3478.2	37.6488342					
3478.8	39.0968666					
3479.4	46.3370285					
3480	50.6811256					
3480.6	62.2653809					
3481.2	43.4409637					
3481.8	40.544899					
3482.4	47.7850571					
3483	47.7850571					
3483.6	27.5126095					
3484.2	47.7850571					
3484.8	46.3370285					
3485.4	47.7850571					
3486	34.7527695					
3486.6	36.2008018					
3487.2	43.4409637					
3487.8	33.3047371					
3488.4	49.2330894					
3489	57.9212837					
3489.6	40.544899					
3490.2	36.2008018					
3490.8	34.7527695					
3491.4	34.7527695					
3492	43.4409637					
3492.6	27.5126095					
3493.2	28.9606419					
3493.8	26.0645771					
3494.4	39.0968666					
3495	46.3370285					
3495.6	39.0968666					
3496.2	40.544899					
3496.8	40.544899					
3497.4	39.0968666					
3498	37.6488342					
3498.6	47.7850571					
3499.2	43.4409637					
3499.8	41.9929314					
3500.4	36.2008018					
3501	36.2008018					
3501.6	21.7204819					
3502.2	44.8889923					
3502.8	49.2330894					
3503.4	46.3370285					
3504	36.2008018					
3504.6	34.7527695					
3505.2	33.3047371					
3505.8	31.8567047					
3506.4	39.0968666					
3507	36.2008018					
3507.6	36.2008018					
3508.2	41.9929314					
3508.8	43.4409637					
3509.4	24.6165447					
3510	41.9929314					
3510.6	41.9929314					
3511.2	27.5126095					
3511.8	44.8889923					
3512.4	18.8244171					
3513	55.025219					
3513.6	49.2330894					
3514.2	34.7527695					
3514.8	27.5126095					
3515.4	34.7527695					
3516	36.2008018					
3516.6	55.025219					
3517.2	36.2008018					
3517.8	37.6488342					
3518.4	56.4732513					
3519	49.2330894					
3519.6	39.0968666					
3520.2	31.8567047					
3520.8	36.2008018					
3521.4	36.2008018					
3522	27.5126095					
3522.6	30.4086742					
3523.2	20.2724495					
3523.8	37.6488342					
3524.4	39.0968666					
3525	37.6488342					
3525.6	34.7527695					
3526.2	34.7527695					
3526.8	33.3047371					
3527.4	40.544899					
3528	47.7850571					
3528.6	30.4086742					
3529.2	46.3370285					
3529.8	31.8567047					
3530.4	46.3370285					
3531	43.4409637					
3531.6	36.2008018					
3532.2	21.7204819					
3532.8	34.7527695					
3533.4	24.6165447					
3534	37.6488342					
3534.6	21.7204819					
3535.2	40.544899					
3535.8	33.3047371					
3536.4	37.6488342					
3537	34.7527695					
3537.6	40.544899					
3538.2	34.7527695					
3538.8	44.8889923					
3539.4	41.9929314					
3540	47.7850571					
3540.6	21.7204819					
3541.2	34.7527695					
3541.8	56.4732513					
3542.4	39.0968666					
3543	33.3047371					
3543.6	40.544899					
3544.2	60.8173485					
3544.8	40.544899					
3545.4	40.544899					
3546	41.9929314					
3546.6	37.6488342					
3547.2	26.0645771					
3547.8	47.7850571					
3548.4	37.6488342					
3549	28.9606419					
3549.6	47.7850571					
3550.2	40.544899					
3550.8	31.8567047					
3551.4	39.0968666					
3552	47.7850571					
3552.6	23.1685143					
3553.2	33.3047371					
3553.8	37.6488342					
3554.4	30.4086742					
3555	47.7850571					
3555.6	39.0968666					
3556.2	40.544899					
3556.8	31.8567047					
3557.4	47.7850571					
3558	31.8567047					
3558.6	43.4409637					
3559.2	30.4086742					
3559.8	40.544899					
3560.4	34.7527695					
3561	36.2008018					
3561.6	36.2008018					
3562.2	43.4409637					
3562.8	30.4086742					
3563.4	41.9929314					
3564	37.6488342					
3564.6	31.8567047					
3565.2	40.544899					
3565.8	46.3370285					
3566.4	44.8889923					
3567	37.6488342					
3567.6	37.6488342					
3568.2	24.6165447					
3568.8	33.3047371					
3569.4	43.4409637					
3570	34.7527695					
3570.6	37.6488342					
3571.2	33.3047371					
3571.8	37.6488342					
3572.4	23.1685143					
3573	36.2008018					
3573.6	30.4086742					
3574.2	28.9606419					
3574.8	44.8889923					
3575.4	37.6488342					
3576	26.0645771					
3576.6	28.9606419					
3577.2	30.4086742					
3577.8	27.5126095					
3578.4	30.4086742					
3579	36.2008018					
3579.6	50.6811256					
3580.2	26.0645771					
3580.8	30.4086742					
3581.4	41.9929314					
3582	44.8889923					
3582.6	30.4086742					
3583.2	43.4409637					
3583.8	37.6488342					
3584.4	44.8889923					
3585	36.2008018					
3585.6	39.0968666					
3586.2	55.025219					
3586.8	40.544899					
3587.4	40.544899					
3588	40.544899					
3588.6	33.3047371					
3589.2	43.4409637					
3589.8	27.5126095					
3590.4	30.4086742					
3591	24.6165447					
3591.6	26.0645771					
3592.2	40.544899					
3592.8	49.2330894					
3593.4	44.8889923					
3594	27.5126095					
3594.6	41.9929314					
3595.2	30.4086742					
3595.8	33.3047371					
3596.4	21.7204819					
3597	33.3047371					
3597.6	40.544899					
3598.2	27.5126095					
3598.8	24.6165447					
3599.4	46.3370285					
3600	36.2008018					
3600.6	41.9929314					
3601.2	31.8567047					
3601.8	33.3047371					
3602.4	27.5126095					
3603	55.025219					
3603.6	37.6488342					
3604.2	39.0968666					
3604.8	41.9929314					
3605.4	40.544899					
3606	24.6165447					
3606.6	30.4086742					
3607.2	27.5126095					
3607.8	47.7850571					
3608.4	33.3047371					
3609	47.7850571					
3609.6	44.8889923					
3610.2	33.3047371					
3610.8	26.0645771					
3611.4	34.7527695					
3612	41.9929314					
3612.6	39.0968666					
3613.2	47.7850571					
3613.8	37.6488342					
3614.4	40.544899					
3615	30.4086742					
3615.6	30.4086742					
3616.2	31.8567047					
3616.8	31.8567047					
3617.4	41.9929314					
3618	23.1685143					
3618.6	44.8889923					
3619.2	24.6165447					
3619.8	39.0968666					
3620.4	37.6488342					
3621	31.8567047					
3621.6	34.7527695					
3622.2	27.5126095					
3622.8	27.5126095					
3623.4	37.6488342					
3624	39.0968666					
3624.6	37.6488342					
3625.2	20.2724495					
3625.8	41.9929314					
3626.4	34.7527695					
3627	27.5126095					
3627.6	30.4086742					
3628.2	33.3047371					
3628.8	44.8889923					
3629.4	21.7204819					
3630	33.3047371					
3630.6	36.2008018					
3631.2	34.7527695					
3631.8	41.9929314					
3632.4	37.6488342					
3633	31.8567047					
3633.6	27.5126095					
3634.2	44.8889923					
3634.8	24.6165447					
3635.4	41.9929314					
3636	41.9929314					
3636.6	30.4086742					
3637.2	31.8567047					
3637.8	28.9606419					
3638.4	23.1685143					
3639	44.8889923					
3639.6	39.0968666					
3640.2	49.2330894					
3640.8	46.3370285					
3641.4	26.0645771					
3642	34.7527695					
3642.6	39.0968666					
3643.2	36.2008018					
3643.8	33.3047371					
3644.4	34.7527695					
3645	33.3047371					
3645.6	43.4409637					
3646.2	49.2330894					
3646.8	40.544899					
3647.4	41.9929314					
3648	36.2008018					
3648.6	40.544899					
3649.2	20.2724495					
3649.8	28.9606419					
3650.4	49.2330894					
3651	37.6488342					
3651.6	30.4086742					
3652.2	36.2008018					
3652.8	39.0968666					
3653.4	26.0645771					
3654	39.0968666					
3654.6	36.2008018					
3655.2	31.8567047					
3655.8	27.5126095					
3656.4	47.7850571					
3657	34.7527695					
3657.6	33.3047371					
3658.2	31.8567047					
3658.8	36.2008018					
3659.4	28.9606419					
3660	36.2008018					
3660.6	31.8567047					
3661.2	28.9606419					
3661.8	36.2008018					
3662.4	23.1685143					
3663	39.0968666					
3663.6	26.0645771					
3664.2	27.5126095					
3664.8	47.7850571					
3665.4	26.0645771					
3666	34.7527695					
3666.6	39.0968666					
3667.2	41.9929314					
3667.8	30.4086742					
3668.4	31.8567047					
3669	28.9606419					
3669.6	34.7527695					
3670.2	20.2724495					
3670.8	18.8244171					
3671.4	20.2724495					
3672	33.3047371					
3672.6	34.7527695					
3673.2	31.8567047					
3673.8	36.2008018					
3674.4	27.5126095					
3675	28.9606419					
3675.6	18.8244171					
3676.2	33.3047371					
3676.8	30.4086742					
3677.4	33.3047371					
3678	30.4086742					
3678.6	41.9929314					
3679.2	31.8567047					
3679.8	34.7527695					
3680.4	21.7204819					
3681	36.2008018					
3681.6	46.3370285					
3682.2	15.9283524					
3682.8	39.0968666					
3683.4	26.0645771					
3684	28.9606419					
3684.6	47.7850571					
3685.2	27.5126095					
3685.8	36.2008018					
3686.4	37.6488342					
3687	26.0645771					
3687.6	39.0968666					
3688.2	28.9606419					
3688.8	41.9929314					
3689.4	36.2008018					
3690	34.7527695					
3690.6	36.2008018					
3691.2	31.8567047					
3691.8	27.5126095					
3692.4	33.3047371					
3693	30.4086742					
3693.6	34.7527695					
3694.2	36.2008018					
3694.8	39.0968666					
3695.4	40.544899					
3696	36.2008018					
3696.6	40.544899					
3697.2	33.3047371					
3697.8	36.2008018					
3698.4	27.5126095					
3699	39.0968666					
3699.6	30.4086742					
3700.2	30.4086742					
3700.8	33.3047371					
3701.4	34.7527695					
3702	28.9606419					
3702.6	34.7527695					
3703.2	37.6488342					
3703.8	30.4086742					
3704.4	30.4086742					
3705	30.4086742					
3705.6	37.6488342					
3706.2	43.4409637					
3706.8	39.0968666					
3707.4	20.2724495					
3708	28.9606419					
3708.6	24.6165447					
3709.2	30.4086742					
3709.8	26.0645771					
3710.4	34.7527695					
3711	36.2008018					
3711.6	36.2008018					
3712.2	43.4409637					
3712.8	37.6488342					
3713.4	41.9929314					
3714	30.4086742					
3714.6	33.3047371					
3715.2	44.8889923					
3715.8	33.3047371					
3716.4	27.5126095					
3717	31.8567047					
3717.6	31.8567047					
3718.2	31.8567047					
3718.8	20.2724495					
3719.4	24.6165447					
3720	34.7527695					
3720.6	37.6488342					
3721.2	17.3763847					
3721.8	39.0968666					
3722.4	28.9606419					
3723	47.7850571					
3723.6	33.3047371					
3724.2	27.5126095					
3724.8	37.6488342					
3725.4	41.9929314					
3726	44.8889923					
3726.6	36.2008018					
3727.2	26.0645771					
3727.8	39.0968666					
3728.4	37.6488342					
3729	28.9606419					
3729.6	53.5771866					
3730.2	30.4086742					
3730.8	41.9929314					
3731.4	31.8567047					
3732	30.4086742					
3732.6	43.4409637					
3733.2	30.4086742					
3733.8	34.7527695					
3734.4	24.6165447					
3735	31.8567047					
3735.6	26.0645771					
3736.2	26.0645771					
3736.8	27.5126095					
3737.4	44.8889923					
3738	26.0645771					
3738.6	41.9929314					
3739.2	34.7527695					
3739.8	27.5126095					
3740.4	36.2008018					
3741	43.4409637					
3741.6	37.6488342					
3742.2	33.3047371					
3742.8	23.1685143					
3743.4	26.0645771					
3744	26.0645771					
3744.6	40.544899					
3745.2	40.544899					
3745.8	20.2724495					
3746.4	18.8244171					
3747	36.2008018					
3747.6	41.9929314					
3748.2	52.1291542					
3748.8	23.1685143					
3749.4	33.3047371					
3750	46.3370285					
3750.6	27.5126095					
3751.2	33.3047371					
3751.8	39.0968666					
3752.4	27.5126095					
3753	30.4086742					
3753.6	26.0645771					
3754.2	43.4409637					
3754.8	28.9606419					
3755.4	24.6165447					
3756	37.6488342					
3756.6	23.1685143					
3757.2	41.9929314					
3757.8	18.8244171					
3758.4	33.3047371					
3759	49.2330894					
3759.6	39.0968666					
3760.2	21.7204819					
3760.8	41.9929314					
3761.4	37.6488342					
3762	34.7527695					
3762.6	24.6165447					
3763.2	27.5126095					
3763.8	33.3047371					
3764.4	27.5126095					
3765	28.9606419					
3765.6	21.7204819					
3766.2	23.1685143					
3766.8	27.5126095					
3767.4	26.0645771					
3768	28.9606419					
3768.6	27.5126095					
3769.2	15.9283524					
3769.8	36.2008018					
3770.4	37.6488342					
3771	44.8889923					
3771.6	33.3047371					
3772.2	28.9606419					
3772.8	24.6165447					
3773.4	26.0645771					
3774	34.7527695					
3774.6	39.0968666					
3775.2	36.2008018					
3775.8	39.0968666					
3776.4	34.7527695					
3777	28.9606419					
3777.6	33.3047371					
3778.2	20.2724495					
3778.8	40.544899					
3779.4	24.6165447					
3780	28.9606419					
3780.6	17.3763847					
3781.2	40.544899					
3781.8	41.9929314					
3782.4	27.5126095					
3783	41.9929314					
3783.6	39.0968666					
3784.2	20.2724495					
3784.8	36.2008018					
3785.4	30.4086742					
3786	31.8567047					
3786.6	37.6488342					
3787.2	24.6165447					
3787.8	36.2008018					
3788.4	30.4086742					
3789	21.7204819					
3789.6	33.3047371					
3790.2	40.544899					
3790.8	47.7850571					
3791.4	18.8244171					
3792	37.6488342					
3792.6	34.7527695					
3793.2	34.7527695					
3793.8	23.1685143					
3794.4	30.4086742					
3795	31.8567047					
3795.6	34.7527695					
3796.2	27.5126095					
3796.8	34.7527695					
3797.4	49.2330894					
3798	30.4086742					
3798.6	26.0645771					
3799.2	36.2008018					
3799.8	31.8567047					
3800.4	34.7527695					
3801	34.7527695					
3801.6	43.4409637					
3802.2	30.4086742					
3802.8	26.0645771					
3803.4	27.5126095					
3804	26.0645771					
3804.6	37.6488342					
3805.2	34.7527695					
3805.8	24.6165447					
3806.4	26.0645771					
3807	39.0968666					
3807.6	20.2724495					
3808.2	31.8567047					
3808.8	37.6488342					
3809.4	18.8244171					
3810	39.0968666					
3810.6	28.9606419					
3811.2	33.3047371					
3811.8	20.2724495					
3812.4	27.5126095					
3813	24.6165447					
3813.6	28.9606419					
3814.2	34.7527695					
3814.8	23.1685143					
3815.4	30.4086742					
3816	34.7527695					
3816.6	30.4086742					
3817.2	36.2008018					
3817.8	27.5126095					
3818.4	20.2724495					
3819	40.544899					
3819.6	31.8567047					
3820.2	24.6165447					
3820.8	53.5771866					
3821.4	26.0645771					
3822	18.8244171					
3822.6	14.4803209					
3823.2	26.0645771					
3823.8	20.2724495					
3824.4	28.9606419					
3825	36.2008018					
3825.6	21.7204819					
3826.2	15.9283524					
3826.8	27.5126095					
3827.4	26.0645771					
3828	28.9606419					
3828.6	27.5126095					
3829.2	28.9606419					
3829.8	34.7527695					
3830.4	30.4086742					
3831	30.4086742					
3831.6	30.4086742					
3832.2	27.5126095					
3832.8	31.8567047					
3833.4	39.0968666					
3834	24.6165447					
3834.6	31.8567047					
3835.2	28.9606419					
3835.8	33.3047371					
3836.4	28.9606419					
3837	27.5126095					
3837.6	30.4086742					
3838.2	26.0645771					
3838.8	44.8889923					
3839.4	24.6165447					
3840	34.7527695					
3840.6	43.4409637					
3841.2	33.3047371					
3841.8	23.1685143					
3842.4	33.3047371					
3843	39.0968666					
3843.6	28.9606419					
3844.2	30.4086742					
3844.8	17.3763847					
3845.4	33.3047371					
3846	27.5126095					
3846.6	33.3047371					
3847.2	31.8567047					
3847.8	30.4086742					
3848.4	36.2008018					
3849	27.5126095					
3849.6	31.8567047					
3850.2	41.9929314					
3850.8	33.3047371					
3851.4	37.6488342					
3852	21.7204819					
3852.6	23.1685143					
3853.2	33.3047371					
3853.8	28.9606419					
3854.4	37.6488342					
3855	24.6165447					
3855.6	41.9929314					
3856.2	34.7527695					
3856.8	31.8567047					
3857.4	37.6488342					
3858	24.6165447					
3858.6	27.5126095					
3859.2	37.6488342					
3859.8	37.6488342					
3860.4	44.8889923					
3861	27.5126095					
3861.6	33.3047371					
3862.2	30.4086742					
3862.8	36.2008018					
3863.4	33.3047371					
3864	28.9606419					
3864.6	37.6488342					
3865.2	31.8567047					
3865.8	24.6165447					
3866.4	24.6165447					
3867	26.0645771					
3867.6	26.0645771					
3868.2	23.1685143					
3868.8	36.2008018					
3869.4	33.3047371					
3870	39.0968666					
3870.6	26.0645771					
3871.2	39.0968666					
3871.8	34.7527695					
3872.4	27.5126095					
3873	24.6165447					
3873.6	28.9606419					
3874.2	40.544899					
3874.8	26.0645771					
3875.4	34.7527695					
3876	28.9606419					
3876.6	37.6488342					
3877.2	33.3047371					
3877.8	27.5126095					
3878.4	37.6488342					
3879	33.3047371					
3879.6	47.7850571					
3880.2	46.3370285					
3880.8	40.544899					
3881.4	34.7527695					
3882	23.1685143					
3882.6	26.0645771					
3883.2	23.1685143					
3883.8	23.1685143					
3884.4	31.8567047					
3885	36.2008018					
3885.6	24.6165447					
3886.2	31.8567047					
3886.8	33.3047371					
3887.4	34.7527695					
3888	30.4086742					
3888.6	24.6165447					
3889.2	36.2008018					
3889.8	23.1685143					
3890.4	34.7527695					
3891	34.7527695					
3891.6	21.7204819					
3892.2	18.8244171					
3892.8	27.5126095					
3893.4	27.5126095					
3894	33.3047371					
3894.6	26.0645771					
3895.2	31.8567047					
3895.8	18.8244171					
3896.4	26.0645771					
3897	30.4086742					
3897.6	23.1685143					
3898.2	31.8567047					
3898.8	27.5126095					
3899.4	28.9606419					
3900	23.1685143					
3900.6	24.6165447					
3901.2	18.8244171					
3901.8	21.7204819					
3902.4	30.4086742					
3903	40.544899					
3903.6	43.4409637					
3904.2	21.7204819					
3904.8	26.0645771					
3905.4	39.0968666					
3906	26.0645771					
3906.6	33.3047371					
3907.2	41.9929314					
3907.8	36.2008018					
3908.4	33.3047371					
3909	41.9929314					
3909.6	33.3047371					
3910.2	30.4086742					
3910.8	31.8567047					
3911.4	34.7527695					
3912	39.0968666					
3912.6	27.5126095					
3913.2	41.9929314					
3913.8	36.2008018					
3914.4	37.6488342					
3915	26.0645771					
3915.6	33.3047371					
3916.2	30.4086742					
3916.8	27.5126095					
3917.4	44.8889923					
3918	37.6488342					
3918.6	36.2008018					
3919.2	31.8567047					
3919.8	30.4086742					
3920.4	26.0645771					
3921	21.7204819					
3921.6	41.9929314					
3922.2	34.7527695					
3922.8	26.0645771					
3923.4	39.0968666					
3924	34.7527695					
3924.6	49.2330894					
3925.2	34.7527695					
3925.8	41.9929314					
3926.4	17.3763847					
3927	24.6165447					
3927.6	17.3763847					
3928.2	28.9606419					
3928.8	39.0968666					
3929.4	21.7204819					
3930	26.0645771					
